General parameters:
Start time: 2023              8             18             15             47      43.502777
Finish time: 2023              8             18             15             53      42.351353
Dwell time (ms): 3000.000000
Source chamber pressure: 2.00e+3
Differential chamber pressure: 7.90e-07
Sample chamber pressure: 3.94e-08
Example position (nm): -3935420.029715,38213.617218,-1000000.000000
Rotation angle (udeg): 55000355.000000
==========
Instrument status: 
0:Data Directory:/icon/data/2023_08_MoS2_5um_hbn_sub/
1:Sample:MoS2
2:Comments:no
3:PinholePlate:#C13
4:z_Zero:4200
5:Operator:djw77/nav31/kw570
==========
zscan inputs: 
z_sep:50000
z_range:200000 -5000000
data_path:/icon/data/2023_08_MoS2_5um_hbn_sub/
example_pos:-3935420.0297      38213.617218          -1000000
N_dwell:200
sampling_period:15
make_plots:1
m1:0.98976
m2:-0.0073571
==========
Detector params:
Sampling period (ms): 15.000000
N dwell: 200.000000
Filament current (A): 1.540000
Filament emission (mA): 1.654254
Solenoid current (A): NaN
Solenoid shim current (A): NaN
Lens params:
0  685
1  300
2  125
3      -0.002
4       -0.01
5       0.012
6         0.8
7         2.1
8         2.8
9  3000
10  1450
11         0.85
12   0
==========
Data:
z(nm),I(A)
200000,5.4185e-11,
100000,5.5588e-11,
0,5.6953e-11,
-100000,5.7607e-11,
-200000,5.9648e-11,
-300000,6.061e-11,
-400000,6.1971e-11,
-500000,6.3177e-11,
-600000,6.6649e-11,
-700000,6.8687e-11,
-800000,7.0501e-11,
-900000,7.1078e-11,
-1000000,7.4282e-11,
-1100000,7.8162e-11,
-1200000,7.8047e-11,
-1300000,7.9969e-11,
-1400000,7.8064e-11,
-1500000,7.6448e-11,
-1600000,7.5143e-11,
-1700000,7.2815e-11,
-1800000,7.0551e-11,
-1900000,6.8434e-11,
-2000000,6.6403e-11,
-2100000,6.2958e-11,
-2200000,6.1019e-11,
-2300000,5.8894e-11,
-2400000,5.7349e-11,
-2500000,5.6909e-11,
-2600000,5.5234e-11,
-2700000,5.2217e-11,
-2800000,5.272e-11,
-2900000,5.1666e-11,
-3000000,4.928e-11,
-3100000,4.7527e-11,
-3200000,4.5735e-11,
-3300000,4.3641e-11,
-3400000,4.1828e-11,
-3500000,4.1372e-11,
-3600000,4.0532e-11,
-3700000,3.7814e-11,
-3800000,3.5927e-11,
-3900000,3.4073e-11,
-4000000,3.3507e-11,
-4100000,3.1601e-11,
-4200000,3.0409e-11,
-4300000,2.9612e-11,
-4400000,2.8636e-11,
-4500000,2.7929e-11,
-4600000,2.5852e-11,
-4700000,2.5614e-11,
-4800000,2.4969e-11,
-4900000,2.4132e-11,
-5000000,2.3416e-11,
-4950000,2.3088e-11,
-4850000,2.4087e-11,
-4750000,2.5206e-11,
-4650000,2.5793e-11,
-4550000,2.6917e-11,
-4450000,2.7135e-11,
-4350000,2.9227e-11,
-4250000,3e-11,
-4150000,3.1223e-11,
-4050000,3.1802e-11,
-3950000,3.3712e-11,
-3850000,3.4554e-11,
-3750000,3.7585e-11,
-3650000,3.8423e-11,
-3550000,3.9483e-11,
-3450000,4.2135e-11,
-3350000,4.2538e-11,
-3250000,4.3751e-11,
-3150000,4.6234e-11,
-3050000,4.8559e-11,
-2950000,5.035e-11,
-2850000,5.148e-11,
-2750000,5.1711e-11,
-2650000,5.2808e-11,
-2550000,5.6198e-11,
-2450000,5.7404e-11,
-2350000,5.7718e-11,
-2250000,6.0604e-11,
-2150000,6.1081e-11,
-2050000,6.303e-11,
-1950000,6.6522e-11,
-1850000,6.8493e-11,
-1750000,7.1618e-11,
-1650000,7.2032e-11,
-1550000,7.5214e-11,
-1450000,7.6245e-11,
-1350000,7.8434e-11,
-1250000,7.905e-11,
-1150000,7.812e-11,
-1050000,7.7184e-11,
-950000,7.4409e-11,
-850000,7.1112e-11,
-750000,6.9743e-11,
-650000,6.8379e-11,
-550000,6.5706e-11,
-450000,6.3664e-11,
-350000,6.0727e-11,
-250000,6.1079e-11,
-150000,5.804e-11,
-50000,5.7371e-11,
50000,5.5757e-11,
150000,5.5426e-11,
