General parameters:
Start time: 2023              8             28              4             57      59.001994
Finish time: 2023              8             28              5              3      55.738083
Dwell time (ms): 3000.000000
Source chamber pressure: 2.00e+3
Differential chamber pressure: 6.32e-07
Sample chamber pressure: 3.62e-08
Example position (nm): -2936977.913924,257115.931740,-1000000.000000
Rotation angle (udeg): 122499955.000000
==========
Instrument status: 
0:Data Directory:/icon/data/2023_08_MoS2_5um_hbn_sub/
1:Sample:MoS2
2:Comments:no
3:PinholePlate:#C13
4:z_Zero:4200
5:Operator:djw77/nav31/kw570
==========
zscan inputs: 
z_sep:50000
z_range:200000 -5000000
data_path:/icon/data/2023_08_MoS2_5um_hbn_sub/
example_pos:-2936977.9139      257115.93174          -1000000
N_dwell:200
sampling_period:15
make_plots:1
m1:0.98976
m2:-0.0073571
==========
Detector params:
Sampling period (ms): 15.000000
N dwell: 200.000000
Filament current (A): 1.540000
Filament emission (mA): 1.902546
Solenoid current (A): NaN
Solenoid shim current (A): NaN
Lens params:
0  685
1  300
2  125
3      -0.002
4       -0.01
5       0.012
6         0.8
7         2.1
8         2.8
9  3000
10  1450
11         0.85
12   0
==========
Data:
z(nm),I(A)
200000,6.6551e-11,
100000,6.5755e-11,
0,6.2707e-11,
-100000,6.2858e-11,
-200000,6.0451e-11,
-300000,6.0543e-11,
-400000,6.1562e-11,
-500000,6.757e-11,
-600000,8.1141e-11,
-700000,1.0652e-10,
-800000,1.4435e-10,
-900000,1.6586e-10,
-1000000,1.4103e-10,
-1100000,1.0643e-10,
-1200000,8.3907e-11,
-1300000,7.1054e-11,
-1400000,7.054e-11,
-1500000,8.1582e-11,
-1600000,1.0081e-10,
-1700000,1.233e-10,
-1800000,1.2589e-10,
-1900000,1.1767e-10,
-2000000,9.4468e-11,
-2100000,7.6345e-11,
-2200000,6.9012e-11,
-2300000,7.5225e-11,
-2400000,9.3605e-11,
-2500000,1.2551e-10,
-2600000,1.5934e-10,
-2700000,1.7825e-10,
-2800000,1.7557e-10,
-2900000,1.5222e-10,
-3000000,1.171e-10,
-3100000,8.9031e-11,
-3200000,6.9266e-11,
-3300000,6.3272e-11,
-3400000,6.2442e-11,
-3500000,6.8388e-11,
-3600000,7.4734e-11,
-3700000,8.1385e-11,
-3800000,8.5226e-11,
-3900000,8.1835e-11,
-4000000,7.394e-11,
-4100000,6.3199e-11,
-4200000,5.4232e-11,
-4300000,4.4826e-11,
-4400000,3.9769e-11,
-4500000,3.7337e-11,
-4600000,3.4353e-11,
-4700000,3.4516e-11,
-4800000,3.2756e-11,
-4900000,3.1387e-11,
-5000000,3.1447e-11,
-4950000,3.2418e-11,
-4850000,3.2675e-11,
-4750000,3.3422e-11,
-4650000,3.3957e-11,
-4550000,3.5921e-11,
-4450000,3.8388e-11,
-4350000,4.1699e-11,
-4250000,4.8834e-11,
-4150000,5.8454e-11,
-4050000,6.667e-11,
-3950000,7.7115e-11,
-3850000,8.4386e-11,
-3750000,8.4236e-11,
-3650000,7.9068e-11,
-3550000,7.2657e-11,
-3450000,6.4986e-11,
-3350000,6.1756e-11,
-3250000,6.5139e-11,
-3150000,7.5482e-11,
-3050000,9.5755e-11,
-2950000,1.3289e-10,
-2850000,1.6043e-10,
-2750000,1.7709e-10,
-2650000,1.7252e-10,
-2550000,1.4632e-10,
-2450000,1.1195e-10,
-2350000,8.5319e-11,
-2250000,7.1122e-11,
-2150000,6.9115e-11,
-2050000,8.1844e-11,
-1950000,1.0657e-10,
-1850000,1.2135e-10,
-1750000,1.2752e-10,
-1650000,1.1735e-10,
-1550000,9.2614e-11,
-1450000,7.7722e-11,
-1350000,7.0963e-11,
-1250000,7.5286e-11,
-1150000,9.194e-11,
-1050000,1.2002e-10,
-950000,1.5512e-10,
-850000,1.6291e-10,
-750000,1.3168e-10,
-650000,9.5242e-11,
-550000,7.4737e-11,
-450000,6.3873e-11,
-350000,6.0471e-11,
-250000,5.9743e-11,
-150000,6.2185e-11,
-50000,6.3287e-11,
50000,6.5113e-11,
150000,6.4993e-11,
