General parameters:
Start time: 2023              8             29              2             15      27.907129
Finish time: 2023              8             29              2             22      31.214675
Dwell time (ms): 3000.000000
Source chamber pressure: 2.00e+3
Differential chamber pressure: 6.07e-07
Sample chamber pressure: 3.62e-08
Example position (nm): -4030100.000000,14300.000000,-1000000.000000
Rotation angle (udeg): 49999745.000000
==========
Instrument status: 
0:Data Directory:/icon/data/2023_08_MoS2_5um_hbn_sub/
1:Sample:MoS2
2:Comments:no
3:PinholePlate:#C13
4:z_Zero:4200
5:Operator:djw77/nav31/kw570
==========
zscan inputs: 
z_sep:50000
z_range:200000 -6000000
data_path:/icon/data/2023_08_MoS2_5um_hbn_sub/
example_pos:-4030100    14300 -1000000
N_dwell:200
sampling_period:15
make_plots:1
m1:0.98976
m2:-0.0073571
==========
Detector params:
Sampling period (ms): 15.000000
N dwell: 200.000000
Filament current (A): 1.540000
Filament emission (mA): 1.918962
Solenoid current (A): NaN
Solenoid shim current (A): NaN
Lens params:
0  685
1  300
2  125
3      -0.002
4       -0.01
5       0.012
6         0.8
7         2.1
8         2.8
9  3000
10  1450
11         0.85
12   0
==========
Data:
z(nm),I(A)
200000,5.2562e-11,
100000,5.1581e-11,
0,5.2241e-11,
-100000,5.1525e-11,
-200000,5.2839e-11,
-300000,5.2318e-11,
-400000,5.393e-11,
-500000,5.4416e-11,
-600000,5.5252e-11,
-700000,5.5993e-11,
-800000,5.6539e-11,
-900000,5.667e-11,
-1000000,5.7621e-11,
-1100000,5.6615e-11,
-1200000,5.8209e-11,
-1300000,5.8435e-11,
-1400000,5.9404e-11,
-1500000,5.8525e-11,
-1600000,5.9797e-11,
-1700000,5.9304e-11,
-1800000,5.9699e-11,
-1900000,6.0254e-11,
-2000000,5.9745e-11,
-2100000,5.9856e-11,
-2200000,5.9224e-11,
-2300000,5.7816e-11,
-2400000,5.7953e-11,
-2500000,5.8591e-11,
-2600000,5.794e-11,
-2700000,5.7101e-11,
-2800000,5.6722e-11,
-2900000,5.6136e-11,
-3000000,5.4141e-11,
-3100000,5.4085e-11,
-3200000,5.4168e-11,
-3300000,5.3621e-11,
-3400000,5.0036e-11,
-3500000,5.1484e-11,
-3600000,5.0325e-11,
-3700000,4.9345e-11,
-3800000,4.8378e-11,
-3900000,4.7141e-11,
-4000000,4.6741e-11,
-4100000,4.5151e-11,
-4200000,4.5458e-11,
-4300000,4.4654e-11,
-4400000,4.2041e-11,
-4500000,4.3326e-11,
-4600000,4.1786e-11,
-4700000,4.0227e-11,
-4800000,3.9993e-11,
-4900000,4.0266e-11,
-5000000,3.9131e-11,
-5100000,3.83e-11,
-5200000,3.8342e-11,
-5300000,3.7264e-11,
-5400000,3.7134e-11,
-5500000,3.6063e-11,
-5600000,3.5525e-11,
-5700000,3.5986e-11,
-5800000,3.5137e-11,
-5900000,3.4376e-11,
-6000000,3.486e-11,
-5950000,3.5179e-11,
-5850000,3.4363e-11,
-5750000,3.4186e-11,
-5650000,3.5964e-11,
-5550000,3.6806e-11,
-5450000,3.695e-11,
-5350000,3.7579e-11,
-5250000,3.7212e-11,
-5150000,3.8306e-11,
-5050000,3.9638e-11,
-4950000,3.8956e-11,
-4850000,3.9325e-11,
-4750000,4.079e-11,
-4650000,4.1852e-11,
-4550000,4.2071e-11,
-4450000,4.246e-11,
-4350000,4.4278e-11,
-4250000,4.4034e-11,
-4150000,4.455e-11,
-4050000,4.7221e-11,
-3950000,4.6711e-11,
-3850000,4.7423e-11,
-3750000,4.813e-11,
-3650000,4.8733e-11,
-3550000,5.0368e-11,
-3450000,5.1005e-11,
-3350000,5.2389e-11,
-3250000,5.1849e-11,
-3150000,5.4265e-11,
-3050000,5.4704e-11,
-2950000,5.489e-11,
-2850000,5.5636e-11,
-2750000,5.6395e-11,
-2650000,5.7444e-11,
-2550000,5.821e-11,
-2450000,5.8932e-11,
-2350000,5.854e-11,
-2250000,5.9441e-11,
-2150000,5.9026e-11,
-2050000,5.9435e-11,
-1950000,5.9663e-11,
-1850000,6.0183e-11,
-1750000,5.8541e-11,
-1650000,5.8399e-11,
-1550000,6.0096e-11,
-1450000,5.8596e-11,
-1350000,5.8145e-11,
-1250000,5.7557e-11,
-1150000,5.8204e-11,
-1050000,5.8387e-11,
-950000,5.7153e-11,
-850000,5.712e-11,
-750000,5.5848e-11,
-650000,5.4463e-11,
-550000,5.3735e-11,
-450000,5.4725e-11,
-350000,5.3633e-11,
-250000,5.2691e-11,
-150000,5.1467e-11,
-50000,5.1767e-11,
50000,5.1531e-11,
150000,5.2618e-11,
