General parameters:
Start time: 2023              9              5              1             30      56.929674
Finish time: 2023              9              5              1             39      59.409192
Dwell time (ms): 3750.000000
Source chamber pressure: Error-S
Differential chamber pressure: 8.00e-07
Sample chamber pressure: 3.67e-08
Example position (nm): -2890000.000000,245000.000000,-1000000.000000
Rotation angle (udeg): 124999840.000000
==========
Instrument status: 
0:Data Directory:/icon/data/2023_08_MoS2_5um_hbn_sub/
1:Sample:MoS2
2:Comments:no
3:PinholePlate:#C13
4:z_Zero:4200
5:Operator:djw77/nav31/kw570
==========
zscan inputs: 
z_sep:50000
z_range:500000 -6000000
data_path:/icon/data/2023_08_MoS2_5um_hbn_sub/
example_pos:-2890000   245000 -1000000
N_dwell:250
sampling_period:15
make_plots:1
m1:0.98976
m2:-0.0073571
==========
Detector params:
Sampling period (ms): 15.000000
N dwell: 250.000000
Filament current (A): 1.540000
Filament emission (mA): 1.927854
Solenoid current (A): NaN
Solenoid shim current (A): NaN
Lens params:
0  685
1  300
2  125
3      -0.002
4       -0.01
5       0.012
6         0.8
7         2.1
8         2.8
9  3000
10  1450
11         0.85
12   0
==========
Data:
z(nm),I(A)
500000,7.2398e-11,
400000,7.4084e-11,
300000,8.2695e-11,
200000,9.3593e-11,
100000,9.2658e-11,
0,1.0257e-10,
-100000,1.0737e-10,
-200000,1.0851e-10,
-300000,1.0713e-10,
-400000,1.1006e-10,
-500000,1.1411e-10,
-600000,1.1889e-10,
-700000,1.2998e-10,
-800000,1.4934e-10,
-900000,1.8471e-10,
-1000000,1.6908e-10,
-1100000,1.4713e-10,
-1200000,1.3069e-10,
-1300000,1.2755e-10,
-1400000,1.2516e-10,
-1500000,1.2649e-10,
-1600000,1.3386e-10,
-1700000,1.4115e-10,
-1800000,1.4657e-10,
-1900000,1.339e-10,
-2000000,1.2185e-10,
-2100000,1.1444e-10,
-2200000,1.1317e-10,
-2300000,1.179e-10,
-2400000,1.2618e-10,
-2500000,1.5543e-10,
-2600000,1.796e-10,
-2700000,1.9654e-10,
-2800000,1.952e-10,
-2900000,1.6576e-10,
-3000000,1.3791e-10,
-3100000,1.1546e-10,
-3200000,1.0278e-10,
-3300000,9.8406e-11,
-3400000,9.9659e-11,
-3500000,1.0647e-10,
-3600000,1.1172e-10,
-3700000,1.1223e-10,
-3800000,1.174e-10,
-3900000,1.1842e-10,
-4000000,1.1426e-10,
-4100000,1.0105e-10,
-4200000,8.2916e-11,
-4300000,7.2074e-11,
-4400000,6.4108e-11,
-4500000,5.9394e-11,
-4600000,5.5383e-11,
-4700000,5.4559e-11,
-4800000,5.326e-11,
-4900000,5.2297e-11,
-5000000,5.3253e-11,
-5100000,5.3317e-11,
-5200000,5.1512e-11,
-5300000,5.2376e-11,
-5400000,4.9554e-11,
-5500000,5.0405e-11,
-5600000,4.7203e-11,
-5700000,4.6709e-11,
-5800000,4.4108e-11,
-5900000,4.1933e-11,
-6000000,4.0419e-11,
-5950000,4.1917e-11,
-5850000,4.3056e-11,
-5750000,4.565e-11,
-5650000,4.7986e-11,
-5550000,4.6994e-11,
-5450000,5.1729e-11,
-5350000,5.1586e-11,
-5250000,5.0983e-11,
-5150000,5.3104e-11,
-5050000,5.2962e-11,
-4950000,5.2394e-11,
-4850000,5.3246e-11,
-4750000,5.4204e-11,
-4650000,5.3919e-11,
-4550000,5.6519e-11,
-4450000,6.0136e-11,
-4350000,6.6522e-11,
-4250000,7.6618e-11,
-4150000,8.7472e-11,
-4050000,1.0415e-10,
-3950000,1.1361e-10,
-3850000,1.1513e-10,
-3750000,1.0897e-10,
-3650000,1.1e-10,
-3550000,1.082e-10,
-3450000,9.9711e-11,
-3350000,9.6275e-11,
-3250000,9.7062e-11,
-3150000,1.0414e-10,
-3050000,1.1861e-10,
-2950000,1.3983e-10,
-2850000,1.6832e-10,
-2750000,1.7695e-10,
-2650000,1.7466e-10,
-2550000,1.6204e-10,
-2450000,1.3134e-10,
-2350000,1.1756e-10,
-2250000,1.1117e-10,
-2150000,1.1211e-10,
-2050000,1.1761e-10,
-1950000,1.1387e-10,
-1850000,1.1606e-10,
-1750000,1.2625e-10,
-1650000,1.2578e-10,
-1550000,1.2286e-10,
-1450000,1.2275e-10,
-1350000,1.2232e-10,
-1250000,1.2325e-10,
-1150000,1.2968e-10,
-1050000,1.4785e-10,
-950000,1.7478e-10,
-850000,1.5718e-10,
-750000,1.231e-10,
-650000,1.0604e-10,
-550000,1.0544e-10,
-450000,1.1156e-10,
-350000,1.0832e-10,
-250000,9.8777e-11,
-150000,9.2912e-11,
-50000,9.3982e-11,
50000,8.6863e-11,
150000,8.4552e-11,
250000,7.9682e-11,
350000,7.5661e-11,
450000,7.3142e-11,
