General parameters:
Start time: 2023              8             22             11             12       36.78324
Finish time: 2023              8             22             11             18        30.8051
Dwell time (ms): 3000.000000
Source chamber pressure: 2.00e+3
Differential chamber pressure: 7.97e-07
Sample chamber pressure: 3.84e-08
Example position (nm): -3882112.242767,49938.768629,-1000000.000000
Rotation angle (udeg): 52500345.000000
==========
Instrument status: 
0:Data Directory:/icon/data/2023_08_MoS2_5um_hbn_sub/
1:Sample:MoS2
2:Comments:no
3:PinholePlate:#C13
4:z_Zero:4200
5:Operator:djw77/nav31/kw570
==========
zscan inputs: 
z_sep:50000
z_range:200000 -5000000
data_path:/icon/data/2023_08_MoS2_5um_hbn_sub/
example_pos:-3882112.2428      49938.768629          -1000000
N_dwell:200
sampling_period:15
make_plots:0
m1:0.98976
m2:-0.0073571
==========
Detector params:
Sampling period (ms): 15.000000
N dwell: 200.000000
Filament current (A): 1.540000
Filament emission (mA): 1.752408
Solenoid current (A): NaN
Solenoid shim current (A): NaN
Lens params:
0  685
1  300
2  125
3      -0.002
4       -0.01
5       0.012
6         0.8
7         2.1
8         2.8
9  3000
10  1450
11         0.85
12   0
==========
Data:
z(nm),I(A)
200000,4.1274e-11,
100000,3.9913e-11,
0,3.9277e-11,
-100000,3.984e-11,
-200000,3.9811e-11,
-300000,4.0763e-11,
-400000,4.1927e-11,
-500000,4.13e-11,
-600000,4.2687e-11,
-700000,4.377e-11,
-800000,4.2937e-11,
-900000,4.3677e-11,
-1000000,4.353e-11,
-1100000,4.4516e-11,
-1200000,4.4685e-11,
-1300000,4.5326e-11,
-1400000,4.4941e-11,
-1500000,4.5787e-11,
-1600000,4.5619e-11,
-1700000,4.6008e-11,
-1800000,4.6191e-11,
-1900000,4.7379e-11,
-2000000,4.5489e-11,
-2100000,4.5156e-11,
-2200000,4.6205e-11,
-2300000,4.6046e-11,
-2400000,4.4321e-11,
-2500000,4.3522e-11,
-2600000,4.3554e-11,
-2700000,4.3082e-11,
-2800000,4.2383e-11,
-2900000,4.1815e-11,
-3000000,4.2766e-11,
-3100000,4.1751e-11,
-3200000,4.1546e-11,
-3300000,3.9963e-11,
-3400000,3.9584e-11,
-3500000,3.863e-11,
-3600000,3.8235e-11,
-3700000,3.7675e-11,
-3800000,3.6121e-11,
-3900000,3.5252e-11,
-4000000,3.6401e-11,
-4100000,3.4736e-11,
-4200000,3.3478e-11,
-4300000,3.3481e-11,
-4400000,3.2662e-11,
-4500000,3.2292e-11,
-4600000,3.1708e-11,
-4700000,3.1981e-11,
-4800000,3.0658e-11,
-4900000,2.8988e-11,
-5000000,2.956e-11,
-4950000,2.9736e-11,
-4850000,3.0152e-11,
-4750000,3.1267e-11,
-4650000,3.1624e-11,
-4550000,3.2239e-11,
-4450000,3.1797e-11,
-4350000,3.3399e-11,
-4250000,3.4243e-11,
-4150000,3.5234e-11,
-4050000,3.5116e-11,
-3950000,3.6357e-11,
-3850000,3.6636e-11,
-3750000,3.671e-11,
-3650000,3.8408e-11,
-3550000,3.891e-11,
-3450000,3.9199e-11,
-3350000,3.9449e-11,
-3250000,4.0137e-11,
-3150000,4.0727e-11,
-3050000,4.1388e-11,
-2950000,4.1771e-11,
-2850000,4.3247e-11,
-2750000,4.3597e-11,
-2650000,4.2827e-11,
-2550000,4.4242e-11,
-2450000,4.5662e-11,
-2350000,4.4653e-11,
-2250000,4.5061e-11,
-2150000,4.5777e-11,
-2050000,4.7008e-11,
-1950000,4.601e-11,
-1850000,4.6296e-11,
-1750000,4.6152e-11,
-1650000,4.6621e-11,
-1550000,4.6812e-11,
-1450000,4.5019e-11,
-1350000,4.5885e-11,
-1250000,4.4959e-11,
-1150000,4.4837e-11,
-1050000,4.4722e-11,
-950000,4.3941e-11,
-850000,4.3052e-11,
-750000,4.2829e-11,
-650000,4.1794e-11,
-550000,4.1477e-11,
-450000,4.1138e-11,
-350000,4.0114e-11,
-250000,4.0206e-11,
-150000,4.0383e-11,
-50000,4.0079e-11,
50000,4.0058e-11,
150000,4.0817e-11,
