General parameters:
Start time: 2023              8             29              2              1       9.984477
Finish time: 2023              8             29              2              8      13.283046
Dwell time (ms): 3000.000000
Source chamber pressure: 2.00e+3
Differential chamber pressure: 6.08e-07
Sample chamber pressure: 3.62e-08
Example position (nm): -4079882.816509,-37273.804254,-1000000.000000
Rotation angle (udeg): 44999830.000000
==========
Instrument status: 
0:Data Directory:/icon/data/2023_08_MoS2_5um_hbn_sub/
1:Sample:MoS2
2:Comments:no
3:PinholePlate:#C13
4:z_Zero:4200
5:Operator:djw77/nav31/kw570
==========
zscan inputs: 
z_sep:50000
z_range:200000 -6000000
data_path:/icon/data/2023_08_MoS2_5um_hbn_sub/
example_pos:-4079882.8165     -37273.804254          -1000000
N_dwell:200
sampling_period:15
make_plots:1
m1:0.98976
m2:-0.0073571
==========
Detector params:
Sampling period (ms): 15.000000
N dwell: 200.000000
Filament current (A): 1.540000
Filament emission (mA): 1.918962
Solenoid current (A): NaN
Solenoid shim current (A): NaN
Lens params:
0  685
1  300
2  125
3      -0.002
4       -0.01
5       0.012
6         0.8
7         2.1
8         2.8
9  3000
10  1450
11         0.85
12   0
==========
Data:
z(nm),I(A)
200000,5.0692e-11,
100000,5.0175e-11,
0,5.0668e-11,
-100000,4.9792e-11,
-200000,5.0129e-11,
-300000,5.1491e-11,
-400000,5.2838e-11,
-500000,5.3707e-11,
-600000,5.2933e-11,
-700000,5.4354e-11,
-800000,5.4963e-11,
-900000,5.6097e-11,
-1000000,5.5209e-11,
-1100000,5.6456e-11,
-1200000,5.798e-11,
-1300000,5.8678e-11,
-1400000,5.7647e-11,
-1500000,5.7773e-11,
-1600000,5.9363e-11,
-1700000,5.8649e-11,
-1800000,5.968e-11,
-1900000,5.8832e-11,
-2000000,5.9981e-11,
-2100000,5.8612e-11,
-2200000,5.877e-11,
-2300000,5.743e-11,
-2400000,5.7767e-11,
-2500000,5.8013e-11,
-2600000,5.7572e-11,
-2700000,5.6491e-11,
-2800000,5.5036e-11,
-2900000,5.4247e-11,
-3000000,5.3477e-11,
-3100000,5.3174e-11,
-3200000,5.3088e-11,
-3300000,5.0595e-11,
-3400000,5.0127e-11,
-3500000,5.0506e-11,
-3600000,4.9191e-11,
-3700000,4.7641e-11,
-3800000,4.6413e-11,
-3900000,4.6788e-11,
-4000000,4.4451e-11,
-4100000,4.5622e-11,
-4200000,4.4088e-11,
-4300000,4.3765e-11,
-4400000,4.2821e-11,
-4500000,4.2741e-11,
-4600000,4.0391e-11,
-4700000,3.9799e-11,
-4800000,3.9778e-11,
-4900000,3.9725e-11,
-5000000,3.8181e-11,
-5100000,3.7587e-11,
-5200000,3.7676e-11,
-5300000,3.8282e-11,
-5400000,3.6086e-11,
-5500000,3.6185e-11,
-5600000,3.4915e-11,
-5700000,3.5272e-11,
-5800000,3.4741e-11,
-5900000,3.2693e-11,
-6000000,3.2898e-11,
-5950000,3.4208e-11,
-5850000,3.4041e-11,
-5750000,3.5358e-11,
-5650000,3.5333e-11,
-5550000,3.5927e-11,
-5450000,3.6396e-11,
-5350000,3.6713e-11,
-5250000,3.7095e-11,
-5150000,3.8377e-11,
-5050000,3.8069e-11,
-4950000,3.8614e-11,
-4850000,3.9162e-11,
-4750000,4.035e-11,
-4650000,4.0848e-11,
-4550000,4.2858e-11,
-4450000,4.2615e-11,
-4350000,4.3484e-11,
-4250000,4.4166e-11,
-4150000,4.4859e-11,
-4050000,4.6029e-11,
-3950000,4.6996e-11,
-3850000,4.729e-11,
-3750000,4.8144e-11,
-3650000,4.8895e-11,
-3550000,4.9413e-11,
-3450000,5.0584e-11,
-3350000,5.2034e-11,
-3250000,5.241e-11,
-3150000,5.2398e-11,
-3050000,5.2438e-11,
-2950000,5.4717e-11,
-2850000,5.5318e-11,
-2750000,5.6432e-11,
-2650000,5.4463e-11,
-2550000,5.8113e-11,
-2450000,5.7076e-11,
-2350000,5.8319e-11,
-2250000,5.9103e-11,
-2150000,5.8941e-11,
-2050000,5.9899e-11,
-1950000,5.9435e-11,
-1850000,5.9101e-11,
-1750000,6.0171e-11,
-1650000,6.014e-11,
-1550000,6.0496e-11,
-1450000,5.8901e-11,
-1350000,5.8434e-11,
-1250000,5.7815e-11,
-1150000,5.8108e-11,
-1050000,5.6497e-11,
-950000,5.6446e-11,
-850000,5.6028e-11,
-750000,5.573e-11,
-650000,5.55e-11,
-550000,5.4517e-11,
-450000,5.2677e-11,
-350000,5.268e-11,
-250000,5.083e-11,
-150000,5.1641e-11,
-50000,5.0295e-11,
50000,5.1155e-11,
150000,5.1282e-11,
