General parameters:
Start time: 2023              8             16             16             43       31.31017
Finish time: 2023              8             16             16             58      34.976691
Dwell time (ms): 3750.000000
Source chamber pressure: 2.00e+3
Differential chamber pressure: 7.98e-07
Sample chamber pressure: 3.84e-08
Example position (nm): -3448000.000000,281000.000000,-1000000.000000
Rotation angle (udeg): 90000005.000000
==========
Instrument status: 
0:Data Directory:/icon/data/2023_08_MoS2_5um_hbn_sub/
1:Sample:MoS2
2:Comments:no
3:PinholePlate:#C13
4:z_Zero:4200
5:Operator:djw77/nav31/kw570
==========
zscan inputs: 
z_sep:30000
z_range:500000 -6000000
data_path:/icon/data/2023_08_MoS2_5um_hbn_sub/
example_pos:-3448000   281000 -1000000
N_dwell:250
sampling_period:15
make_plots:1
m1:0.98534
m2:-0.0012405
==========
Detector params:
Sampling period (ms): 15.000000
N dwell: 250.000000
Filament current (A): 1.540000
Filament emission (mA): 1.650834
Solenoid current (A): NaN
Solenoid shim current (A): NaN
Lens params:
0  685
1  300
2  125
3      -0.002
4       -0.01
5       0.012
6         0.8
7         2.1
8         2.8
9  3000
10  1450
11         0.85
12   0
==========
Data:
z(nm),I(A)
500000,9.3218e-11,
440000,9.3996e-11,
380000,9.4505e-11,
320000,9.7573e-11,
260000,1.02e-10,
200000,1.0514e-10,
140000,1.0757e-10,
80000,1.0665e-10,
20000,1.0837e-10,
-40000,1.1202e-10,
-100000,1.1324e-10,
-160000,1.1665e-10,
-220000,1.2039e-10,
-280000,1.226e-10,
-340000,1.2635e-10,
-400000,1.292e-10,
-460000,1.3265e-10,
-520000,1.3388e-10,
-580000,1.3731e-10,
-640000,1.3851e-10,
-700000,1.4265e-10,
-760000,1.4529e-10,
-820000,1.4761e-10,
-880000,1.4789e-10,
-940000,1.4801e-10,
-1000000,1.503e-10,
-1060000,1.4996e-10,
-1120000,1.4975e-10,
-1180000,1.4828e-10,
-1240000,1.488e-10,
-1300000,1.4738e-10,
-1360000,1.4685e-10,
-1420000,1.4557e-10,
-1480000,1.4242e-10,
-1540000,1.421e-10,
-1600000,1.4055e-10,
-1660000,1.3834e-10,
-1720000,1.382e-10,
-1780000,1.344e-10,
-1840000,1.3383e-10,
-1900000,1.2892e-10,
-1960000,1.2622e-10,
-2020000,1.2314e-10,
-2080000,1.2223e-10,
-2140000,1.1956e-10,
-2200000,1.1788e-10,
-2260000,1.1611e-10,
-2320000,1.1324e-10,
-2380000,1.1202e-10,
-2440000,1.1201e-10,
-2500000,1.1038e-10,
-2560000,1.0532e-10,
-2620000,1.0479e-10,
-2680000,1.0206e-10,
-2740000,1.0155e-10,
-2800000,9.96e-11,
-2860000,9.8135e-11,
-2920000,9.659e-11,
-2980000,9.5688e-11,
-3040000,9.2656e-11,
-3100000,9.0337e-11,
-3160000,8.9745e-11,
-3220000,8.7283e-11,
-3280000,8.6071e-11,
-3340000,8.4178e-11,
-3400000,8.4203e-11,
-3460000,8.2933e-11,
-3520000,8.2917e-11,
-3580000,8.1712e-11,
-3640000,8.0479e-11,
-3700000,8.1088e-11,
-3760000,8.0074e-11,
-3820000,7.8885e-11,
-3880000,7.8519e-11,
-3940000,7.6719e-11,
-4000000,7.6634e-11,
-4060000,7.6132e-11,
-4120000,7.5174e-11,
-4180000,7.4485e-11,
-4240000,7.4801e-11,
-4300000,7.359e-11,
-4360000,7.286e-11,
-4420000,7.0798e-11,
-4480000,7.0441e-11,
-4540000,7.0086e-11,
-4600000,6.9769e-11,
-4660000,6.8499e-11,
-4720000,6.8645e-11,
-4780000,6.8908e-11,
-4840000,6.6294e-11,
-4900000,6.6483e-11,
-4960000,6.629e-11,
-5020000,6.6434e-11,
-5080000,6.4288e-11,
-5140000,6.3683e-11,
-5200000,6.4326e-11,
-5260000,6.2536e-11,
-5320000,6.2466e-11,
-5380000,6.1481e-11,
-5440000,6.2896e-11,
-5500000,6.1511e-11,
-5560000,6.1213e-11,
-5620000,6.1925e-11,
-5680000,6.0896e-11,
-5740000,5.9873e-11,
-5800000,5.9388e-11,
-5860000,5.9249e-11,
-5920000,6.0011e-11,
-5980000,5.8575e-11,
-5950000,5.8018e-11,
-5890000,5.9348e-11,
-5830000,5.903e-11,
-5770000,5.976e-11,
-5710000,5.9203e-11,
-5650000,6.0221e-11,
-5590000,6.1198e-11,
-5530000,6.1521e-11,
-5470000,6.3124e-11,
-5410000,6.214e-11,
-5350000,6.3156e-11,
-5290000,6.33e-11,
-5230000,6.329e-11,
-5170000,6.589e-11,
-5110000,6.4504e-11,
-5050000,6.5264e-11,
-4990000,6.6215e-11,
-4930000,6.5737e-11,
-4870000,6.7076e-11,
-4810000,6.747e-11,
-4750000,6.7979e-11,
-4690000,6.8452e-11,
-4630000,6.8769e-11,
-4570000,7.0188e-11,
-4510000,7.0165e-11,
-4450000,7.2188e-11,
-4390000,7.2359e-11,
-4330000,7.2794e-11,
-4270000,7.3694e-11,
-4210000,7.3008e-11,
-4150000,7.4205e-11,
-4090000,7.5456e-11,
-4030000,7.5859e-11,
-3970000,7.6335e-11,
-3910000,7.644e-11,
-3850000,7.7988e-11,
-3790000,7.8093e-11,
-3730000,7.9493e-11,
-3670000,7.9854e-11,
-3610000,8.046e-11,
-3550000,8.1398e-11,
-3490000,8.2986e-11,
-3430000,8.3518e-11,
-3370000,8.4692e-11,
-3310000,8.4305e-11,
-3250000,8.5709e-11,
-3190000,8.6512e-11,
-3130000,8.9523e-11,
-3070000,9.2749e-11,
-3010000,9.4856e-11,
-2950000,9.4318e-11,
-2890000,9.6173e-11,
-2830000,9.7946e-11,
-2770000,9.9935e-11,
-2710000,1.022e-10,
-2650000,1.025e-10,
-2590000,1.0533e-10,
-2530000,1.09e-10,
-2470000,1.086e-10,
-2410000,1.1184e-10,
-2350000,1.1312e-10,
-2290000,1.1481e-10,
-2230000,1.1604e-10,
-2170000,1.1867e-10,
-2110000,1.1886e-10,
-2050000,1.2202e-10,
-1990000,1.2328e-10,
-1930000,1.2671e-10,
-1870000,1.3077e-10,
-1810000,1.3387e-10,
-1750000,1.3617e-10,
-1690000,1.3692e-10,
-1630000,1.405e-10,
-1570000,1.4055e-10,
-1510000,1.4328e-10,
-1450000,1.468e-10,
-1390000,1.4641e-10,
-1330000,1.4535e-10,
-1270000,1.4845e-10,
-1210000,1.4956e-10,
-1150000,1.4898e-10,
-1090000,1.4947e-10,
-1030000,1.5174e-10,
-970000,1.5014e-10,
-910000,1.481e-10,
-850000,1.4854e-10,
-790000,1.4619e-10,
-730000,1.4339e-10,
-670000,1.4014e-10,
-610000,1.3709e-10,
-550000,1.3522e-10,
-490000,1.3396e-10,
-430000,1.3126e-10,
-370000,1.2689e-10,
-310000,1.247e-10,
-250000,1.1966e-10,
-190000,1.1615e-10,
-130000,1.1283e-10,
-70000,1.1069e-10,
-10000,1.0944e-10,
50000,1.0583e-10,
110000,1.0519e-10,
170000,1.0375e-10,
230000,9.9998e-11,
290000,9.9058e-11,
350000,9.6408e-11,
410000,9.5034e-11,
470000,9.4058e-11,
