General parameters:
Start time: 2023              8             28              3              9      25.782747
Finish time: 2023              8             28              3             15       22.18245
Dwell time (ms): 3000.000000
Source chamber pressure: 2.00e+3
Differential chamber pressure: 6.35e-07
Sample chamber pressure: 3.61e-08
Example position (nm): -3670352.696813,257807.415413,-1000000.000000
Rotation angle (udeg): 77499870.000000
==========
Instrument status: 
0:Data Directory:/icon/data/2023_08_MoS2_5um_hbn_sub/
1:Sample:MoS2
2:Comments:no
3:PinholePlate:#C13
4:z_Zero:4200
5:Operator:djw77/nav31/kw570
==========
zscan inputs: 
z_sep:50000
z_range:200000 -5000000
data_path:/icon/data/2023_08_MoS2_5um_hbn_sub/
example_pos:-3670352.6968      257807.41541          -1000000
N_dwell:200
sampling_period:15
make_plots:1
m1:0.98976
m2:-0.0073571
==========
Detector params:
Sampling period (ms): 15.000000
N dwell: 200.000000
Filament current (A): 1.540000
Filament emission (mA): 1.899468
Solenoid current (A): NaN
Solenoid shim current (A): NaN
Lens params:
0  685
1  300
2  125
3      -0.002
4       -0.01
5       0.012
6         0.8
7         2.1
8         2.8
9  3000
10  1450
11         0.85
12   0
==========
Data:
z(nm),I(A)
200000,1.5371e-10,
100000,1.3777e-10,
0,1.24e-10,
-100000,1.0785e-10,
-200000,8.6797e-11,
-300000,7.4162e-11,
-400000,6.5409e-11,
-500000,6.2564e-11,
-600000,6.9036e-11,
-700000,8.928e-11,
-800000,1.329e-10,
-900000,1.7978e-10,
-1000000,1.987e-10,
-1100000,1.811e-10,
-1200000,1.3776e-10,
-1300000,1.0159e-10,
-1400000,8.1438e-11,
-1500000,7.0329e-11,
-1600000,7.037e-11,
-1700000,7.1275e-11,
-1800000,7.6532e-11,
-1900000,7.9325e-11,
-2000000,7.5119e-11,
-2100000,6.8565e-11,
-2200000,6.1373e-11,
-2300000,5.7814e-11,
-2400000,5.6045e-11,
-2500000,5.5824e-11,
-2600000,5.7528e-11,
-2700000,5.8636e-11,
-2800000,5.9111e-11,
-2900000,5.9516e-11,
-3000000,5.7168e-11,
-3100000,5.5419e-11,
-3200000,5.2819e-11,
-3300000,4.9634e-11,
-3400000,4.8811e-11,
-3500000,4.6638e-11,
-3600000,4.4808e-11,
-3700000,4.2096e-11,
-3800000,4.0699e-11,
-3900000,3.8551e-11,
-4000000,3.6878e-11,
-4100000,3.4993e-11,
-4200000,3.3595e-11,
-4300000,3.3977e-11,
-4400000,3.2447e-11,
-4500000,3.2139e-11,
-4600000,3.1032e-11,
-4700000,3.1824e-11,
-4800000,3.0589e-11,
-4900000,3.0633e-11,
-5000000,2.9785e-11,
-4950000,3.1002e-11,
-4850000,3.0535e-11,
-4750000,3.1521e-11,
-4650000,3.1593e-11,
-4550000,3.1462e-11,
-4450000,3.2848e-11,
-4350000,3.3551e-11,
-4250000,3.4263e-11,
-4150000,3.4259e-11,
-4050000,3.5797e-11,
-3950000,3.7665e-11,
-3850000,3.9592e-11,
-3750000,4.233e-11,
-3650000,4.2766e-11,
-3550000,4.5701e-11,
-3450000,4.7969e-11,
-3350000,4.8646e-11,
-3250000,5.0805e-11,
-3150000,5.2799e-11,
-3050000,5.5895e-11,
-2950000,5.81e-11,
-2850000,6.0034e-11,
-2750000,5.8971e-11,
-2650000,5.7607e-11,
-2550000,5.6059e-11,
-2450000,5.6576e-11,
-2350000,5.6742e-11,
-2250000,5.8324e-11,
-2150000,6.4335e-11,
-2050000,7.1555e-11,
-1950000,7.6548e-11,
-1850000,8.0763e-11,
-1750000,7.5676e-11,
-1650000,7.1289e-11,
-1550000,7.0096e-11,
-1450000,7.5457e-11,
-1350000,8.5599e-11,
-1250000,1.1288e-10,
-1150000,1.6251e-10,
-1050000,1.9647e-10,
-950000,1.9678e-10,
-850000,1.6275e-10,
-750000,1.1191e-10,
-650000,7.9619e-11,
-550000,6.4853e-11,
-450000,6.2536e-11,
-350000,6.7989e-11,
-250000,7.7522e-11,
-150000,9.392e-11,
-50000,1.1301e-10,
50000,1.2701e-10,
150000,1.4532e-10,
