General parameters:
Start time: 2023              9             18             23             20      25.474567
Finish time: 2023              9             18             23             29      27.938491
Dwell time (ms): 3750.000000
Source chamber pressure: Error-S
Differential chamber pressure: 8.18e-07
Sample chamber pressure: 3.58e-08
Example position (nm): -4582000.000000,253000.000000,-2700000.000000
Rotation angle (udeg): 124999875.000000
==========
Instrument status: 
0:Data Directory:/icon/data/2023_08_MoS2_5um_hbn_sub/
1:Sample:MoS2
2:Comments:no
3:PinholePlate:#C13
4:z_Zero:4200
5:Operator:djw77/nav31/kw570
==========
zscan inputs: 
z_sep:50000
z_range:500000 -6000000
data_path:/icon/data/2023_08_MoS2_5um_hbn_sub/
example_pos:-4582000   253000 -2700000
N_dwell:250
sampling_period:15
make_plots:1
m1:0.98976
m2:-0.0073571
==========
Detector params:
Sampling period (ms): 15.000000
N dwell: 250.000000
Filament current (A): 1.540000
Filament emission (mA): 3.292434
Solenoid current (A): NaN
Solenoid shim current (A): NaN
Lens params:
0  685
1  300
2  125
3      -0.002
4       -0.01
5       0.012
6         0.8
7         2.1
8         2.8
9  3000
10  1450
11         0.85
12   0
==========
Data:
z(nm),I(A)
500000,3.0419e-10,
400000,3.1639e-10,
300000,3.4096e-10,
200000,3.7313e-10,
100000,3.8725e-10,
0,3.8993e-10,
-100000,3.8796e-10,
-200000,3.8797e-10,
-300000,3.8881e-10,
-400000,3.9425e-10,
-500000,4.0934e-10,
-600000,4.5761e-10,
-700000,5.3949e-10,
-800000,6.5596e-10,
-900000,7.1768e-10,
-1000000,6.0352e-10,
-1100000,4.6837e-10,
-1200000,3.9667e-10,
-1300000,3.6798e-10,
-1400000,3.7213e-10,
-1500000,4.1855e-10,
-1600000,5.0184e-10,
-1700000,5.7389e-10,
-1800000,5.7785e-10,
-1900000,5.1821e-10,
-2000000,4.2877e-10,
-2100000,3.6115e-10,
-2200000,3.4912e-10,
-2300000,3.8165e-10,
-2400000,4.7285e-10,
-2500000,6.1636e-10,
-2600000,7.4106e-10,
-2700000,8.0261e-10,
-2800000,7.7541e-10,
-2900000,6.5959e-10,
-3000000,5.1515e-10,
-3100000,3.9929e-10,
-3200000,3.4094e-10,
-3300000,3.2553e-10,
-3400000,3.4043e-10,
-3500000,3.6811e-10,
-3600000,4.0652e-10,
-3700000,4.3575e-10,
-3800000,4.4884e-10,
-3900000,4.3188e-10,
-4000000,3.9752e-10,
-4100000,3.4194e-10,
-4200000,2.941e-10,
-4300000,2.5396e-10,
-4400000,2.2577e-10,
-4500000,2.0995e-10,
-4600000,2.0058e-10,
-4700000,1.9584e-10,
-4800000,1.9256e-10,
-4900000,1.9238e-10,
-5000000,1.9341e-10,
-5100000,1.9581e-10,
-5200000,1.9407e-10,
-5300000,1.9178e-10,
-5400000,1.9448e-10,
-5500000,1.7361e-10,
-5600000,1.6551e-10,
-5700000,1.6825e-10,
-5800000,1.6685e-10,
-5900000,1.5969e-10,
-6000000,1.5454e-10,
-5950000,1.5803e-10,
-5850000,1.6395e-10,
-5750000,1.7068e-10,
-5650000,1.6715e-10,
-5550000,1.6792e-10,
-5450000,1.8297e-10,
-5350000,1.9105e-10,
-5250000,1.935e-10,
-5150000,1.9511e-10,
-5050000,1.9486e-10,
-4950000,1.9556e-10,
-4850000,1.9454e-10,
-4750000,1.9535e-10,
-4650000,1.9799e-10,
-4550000,2.0404e-10,
-4450000,2.1577e-10,
-4350000,2.3667e-10,
-4250000,2.6818e-10,
-4150000,3.1163e-10,
-4050000,3.6738e-10,
-3950000,4.1424e-10,
-3850000,4.4121e-10,
-3750000,4.4263e-10,
-3650000,4.2377e-10,
-3550000,3.8926e-10,
-3450000,3.5515e-10,
-3350000,3.3138e-10,
-3250000,3.2982e-10,
-3150000,3.6076e-10,
-3050000,4.3829e-10,
-2950000,5.706e-10,
-2850000,7.0951e-10,
-2750000,7.8593e-10,
-2650000,7.8934e-10,
-2550000,6.9444e-10,
-2450000,5.4677e-10,
-2350000,4.3014e-10,
-2250000,3.667e-10,
-2150000,3.5966e-10,
-2050000,3.893e-10,
-1950000,4.617e-10,
-1850000,5.352e-10,
-1750000,5.6986e-10,
-1650000,5.3866e-10,
-1550000,4.621e-10,
-1450000,4.0608e-10,
-1350000,3.8767e-10,
-1250000,3.9725e-10,
-1150000,4.3259e-10,
-1050000,5.137e-10,
-950000,6.5332e-10,
-850000,6.9469e-10,
-750000,5.8321e-10,
-650000,4.8553e-10,
-550000,4.4067e-10,
-450000,4.1226e-10,
-350000,3.9815e-10,
-250000,3.9887e-10,
-150000,3.8986e-10,
-50000,3.8405e-10,
50000,3.7875e-10,
150000,3.7635e-10,
250000,3.5794e-10,
350000,3.5385e-10,
450000,3.2458e-10,
