General parameters:
Start time: 2023              8             22              2              4       1.454896
Finish time: 2023              8             22              2              9       59.50504
Dwell time (ms): 3000.000000
Source chamber pressure: 2.00e+3
Differential chamber pressure: 7.98e-07
Sample chamber pressure: 3.78e-08
Example position (nm): -3431206.116092,320839.826670,-1000000.000000
Rotation angle (udeg): 92500115.000000
==========
Instrument status: 
0:Data Directory:/icon/data/2023_08_MoS2_5um_hbn_sub/
1:Sample:MoS2
2:Comments:no
3:PinholePlate:#C13
4:z_Zero:4200
5:Operator:djw77/nav31/kw570
==========
zscan inputs: 
z_sep:50000
z_range:200000 -5000000
data_path:/icon/data/2023_08_MoS2_5um_hbn_sub/
example_pos:-3431206.1161      320839.82667          -1000000
N_dwell:200
sampling_period:15
make_plots:0
m1:0.98976
m2:-0.0073571
==========
Detector params:
Sampling period (ms): 15.000000
N dwell: 200.000000
Filament current (A): 1.540000
Filament emission (mA): 1.751724
Solenoid current (A): NaN
Solenoid shim current (A): NaN
Lens params:
0  685
1  300
2  125
3      -0.002
4       -0.01
5       0.012
6         0.8
7         2.1
8         2.8
9  3000
10  1450
11         0.85
12   0
==========
Data:
z(nm),I(A)
200000,6.3661e-11,
100000,6.5208e-11,
0,6.3895e-11,
-100000,6.0314e-11,
-200000,5.6379e-11,
-300000,5.5715e-11,
-400000,5.2092e-11,
-500000,5.4792e-11,
-600000,6.3367e-11,
-700000,8.3825e-11,
-800000,1.2471e-10,
-900000,1.6602e-10,
-1000000,1.7455e-10,
-1100000,1.4856e-10,
-1200000,1.086e-10,
-1300000,7.9247e-11,
-1400000,6.5078e-11,
-1500000,5.645e-11,
-1600000,5.23e-11,
-1700000,5.0466e-11,
-1800000,4.8607e-11,
-1900000,4.8065e-11,
-2000000,4.7449e-11,
-2100000,4.8117e-11,
-2200000,5.1471e-11,
-2300000,5.8712e-11,
-2400000,6.8615e-11,
-2500000,7.5456e-11,
-2600000,7.5036e-11,
-2700000,6.932e-11,
-2800000,5.8711e-11,
-2900000,4.6994e-11,
-3000000,4.1103e-11,
-3100000,3.9057e-11,
-3200000,3.7848e-11,
-3300000,3.7341e-11,
-3400000,3.6306e-11,
-3500000,3.7134e-11,
-3600000,3.6735e-11,
-3700000,3.4783e-11,
-3800000,3.3984e-11,
-3900000,3.3366e-11,
-4000000,3.1838e-11,
-4100000,3.1789e-11,
-4200000,3.1114e-11,
-4300000,2.9808e-11,
-4400000,2.9988e-11,
-4500000,3.0178e-11,
-4600000,2.862e-11,
-4700000,2.7962e-11,
-4800000,2.7686e-11,
-4900000,2.631e-11,
-5000000,2.5397e-11,
-4950000,2.5058e-11,
-4850000,2.6678e-11,
-4750000,2.7497e-11,
-4650000,2.8481e-11,
-4550000,2.929e-11,
-4450000,3.0251e-11,
-4350000,2.9786e-11,
-4250000,3.0584e-11,
-4150000,3.1261e-11,
-4050000,3.1552e-11,
-3950000,3.2467e-11,
-3850000,3.3124e-11,
-3750000,3.4241e-11,
-3650000,3.5199e-11,
-3550000,3.6366e-11,
-3450000,3.7091e-11,
-3350000,3.737e-11,
-3250000,3.6463e-11,
-3150000,3.7759e-11,
-3050000,3.9444e-11,
-2950000,4.3817e-11,
-2850000,5.2411e-11,
-2750000,6.1968e-11,
-2650000,7.2549e-11,
-2550000,7.7365e-11,
-2450000,7.4312e-11,
-2350000,6.5983e-11,
-2250000,5.6152e-11,
-2150000,5.0513e-11,
-2050000,4.7455e-11,
-1950000,4.7576e-11,
-1850000,4.802e-11,
-1750000,4.9739e-11,
-1650000,5.0975e-11,
-1550000,5.3474e-11,
-1450000,5.8688e-11,
-1350000,7.1069e-11,
-1250000,8.9908e-11,
-1150000,1.2421e-10,
-1050000,1.6174e-10,
-950000,1.7712e-10,
-850000,1.5653e-10,
-750000,1.0636e-10,
-650000,7.4965e-11,
-550000,5.9585e-11,
-450000,5.3406e-11,
-350000,5.3534e-11,
-250000,5.5282e-11,
-150000,5.9638e-11,
-50000,6.2972e-11,
50000,6.527e-11,
150000,6.4394e-11,
