General parameters:
Start time: 2023              8             18             18             38      49.190104
Finish time: 2023              8             18             18             44      45.515862
Dwell time (ms): 3000.000000
Source chamber pressure: 2.00e+3
Differential chamber pressure: 7.95e-07
Sample chamber pressure: 3.84e-08
Example position (nm): -3484085.132557,274046.265671,-1000000.000000
Rotation angle (udeg): 87499855.000000
==========
Instrument status: 
0:Data Directory:/icon/data/2023_08_MoS2_5um_hbn_sub/
1:Sample:MoS2
2:Comments:no
3:PinholePlate:#C13
4:z_Zero:4200
5:Operator:djw77/nav31/kw570
==========
zscan inputs: 
z_sep:50000
z_range:200000 -5000000
data_path:/icon/data/2023_08_MoS2_5um_hbn_sub/
example_pos:-3484085.1326      274046.26567          -1000000
N_dwell:200
sampling_period:15
make_plots:0
m1:0.98976
m2:-0.0073571
==========
Detector params:
Sampling period (ms): 15.000000
N dwell: 200.000000
Filament current (A): 1.540000
Filament emission (mA): 1.661094
Solenoid current (A): NaN
Solenoid shim current (A): NaN
Lens params:
0  685
1  300
2  125
3      -0.002
4       -0.01
5       0.012
6         0.8
7         2.1
8         2.8
9  3000
10  1450
11         0.85
12   0
==========
Data:
z(nm),I(A)
200000,4.6676e-11,
100000,4.8901e-11,
0,4.74e-11,
-100000,4.4707e-11,
-200000,4.4069e-11,
-300000,4.3385e-11,
-400000,4.2414e-11,
-500000,4.4819e-11,
-600000,4.6754e-11,
-700000,4.5522e-11,
-800000,4.5861e-11,
-900000,4.4612e-11,
-1000000,4.6361e-11,
-1100000,4.8487e-11,
-1200000,5.0544e-11,
-1300000,5.3742e-11,
-1400000,5.2299e-11,
-1500000,4.9627e-11,
-1600000,4.9107e-11,
-1700000,4.7761e-11,
-1800000,4.4597e-11,
-1900000,4.2496e-11,
-2000000,4.2049e-11,
-2100000,4.1987e-11,
-2200000,4.1394e-11,
-2300000,4.1675e-11,
-2400000,4.2502e-11,
-2500000,4.236e-11,
-2600000,4.0231e-11,
-2700000,3.8964e-11,
-2800000,3.7711e-11,
-2900000,3.8859e-11,
-3000000,3.8389e-11,
-3100000,3.7498e-11,
-3200000,3.5903e-11,
-3300000,3.644e-11,
-3400000,3.5947e-11,
-3500000,3.496e-11,
-3600000,3.3888e-11,
-3700000,3.2815e-11,
-3800000,3.2652e-11,
-3900000,3.202e-11,
-4000000,3.1664e-11,
-4100000,3.1189e-11,
-4200000,3.0268e-11,
-4300000,2.9474e-11,
-4400000,2.8837e-11,
-4500000,2.8537e-11,
-4600000,2.8274e-11,
-4700000,2.7784e-11,
-4800000,2.6708e-11,
-4900000,2.6494e-11,
-5000000,2.5266e-11,
-4950000,2.5654e-11,
-4850000,2.6564e-11,
-4750000,2.7367e-11,
-4650000,2.751e-11,
-4550000,2.8559e-11,
-4450000,2.8447e-11,
-4350000,2.906e-11,
-4250000,2.922e-11,
-4150000,3.0477e-11,
-4050000,3.0828e-11,
-3950000,3.1728e-11,
-3850000,3.2076e-11,
-3750000,3.2661e-11,
-3650000,3.4317e-11,
-3550000,3.4168e-11,
-3450000,3.4253e-11,
-3350000,3.5322e-11,
-3250000,3.5582e-11,
-3150000,3.6389e-11,
-3050000,3.6414e-11,
-2950000,3.8173e-11,
-2850000,3.879e-11,
-2750000,3.9132e-11,
-2650000,3.9767e-11,
-2550000,4.1014e-11,
-2450000,4.0842e-11,
-2350000,4.1043e-11,
-2250000,4.1018e-11,
-2150000,4.1472e-11,
-2050000,4.2544e-11,
-1950000,4.2932e-11,
-1850000,4.3582e-11,
-1750000,4.3899e-11,
-1650000,4.4736e-11,
-1550000,4.7676e-11,
-1450000,4.7367e-11,
-1350000,4.8342e-11,
-1250000,5.0323e-11,
-1150000,4.6104e-11,
-1050000,4.615e-11,
-950000,4.357e-11,
-850000,4.2715e-11,
-750000,4.4129e-11,
-650000,4.4879e-11,
-550000,4.4088e-11,
-450000,4.0361e-11,
-350000,4.1014e-11,
-250000,4.2679e-11,
-150000,4.3438e-11,
-50000,4.5359e-11,
50000,4.8441e-11,
150000,4.682e-11,
