General parameters:
Start time: 2023              8             28              4              3        42.9359
Finish time: 2023              8             28              4              9      38.667651
Dwell time (ms): 3000.000000
Source chamber pressure: 2.00e+3
Differential chamber pressure: 6.33e-07
Sample chamber pressure: 3.62e-08
Example position (nm): -3303596.533041,330400.330697,-1000000.000000
Rotation angle (udeg): 100000045.000000
==========
Instrument status: 
0:Data Directory:/icon/data/2023_08_MoS2_5um_hbn_sub/
1:Sample:MoS2
2:Comments:no
3:PinholePlate:#C13
4:z_Zero:4200
5:Operator:djw77/nav31/kw570
==========
zscan inputs: 
z_sep:50000
z_range:200000 -5000000
data_path:/icon/data/2023_08_MoS2_5um_hbn_sub/
example_pos:-3303596.533       330400.3307          -1000000
N_dwell:200
sampling_period:15
make_plots:1
m1:0.98976
m2:-0.0073571
==========
Detector params:
Sampling period (ms): 15.000000
N dwell: 200.000000
Filament current (A): 1.540000
Filament emission (mA): 1.902546
Solenoid current (A): NaN
Solenoid shim current (A): NaN
Lens params:
0  685
1  300
2  125
3      -0.002
4       -0.01
5       0.012
6         0.8
7         2.1
8         2.8
9  3000
10  1450
11         0.85
12   0
==========
Data:
z(nm),I(A)
200000,5.5155e-11,
100000,5.6476e-11,
0,5.7503e-11,
-100000,5.8901e-11,
-200000,5.7267e-11,
-300000,5.8886e-11,
-400000,5.7183e-11,
-500000,6.2843e-11,
-600000,7.402e-11,
-700000,1.0025e-10,
-800000,1.393e-10,
-900000,1.6693e-10,
-1000000,1.7616e-10,
-1100000,1.4666e-10,
-1200000,1.0929e-10,
-1300000,8.7167e-11,
-1400000,7.0792e-11,
-1500000,6.5832e-11,
-1600000,6.6051e-11,
-1700000,6.6876e-11,
-1800000,6.4283e-11,
-1900000,5.9427e-11,
-2000000,5.4689e-11,
-2100000,5.1963e-11,
-2200000,5.3252e-11,
-2300000,5.864e-11,
-2400000,6.3731e-11,
-2500000,6.7943e-11,
-2600000,6.9608e-11,
-2700000,6.6074e-11,
-2800000,5.8888e-11,
-2900000,5.2699e-11,
-3000000,5.0975e-11,
-3100000,4.8978e-11,
-3200000,5.0366e-11,
-3300000,5.1205e-11,
-3400000,5.1595e-11,
-3500000,5.0848e-11,
-3600000,4.7872e-11,
-3700000,4.584e-11,
-3800000,4.1869e-11,
-3900000,3.8333e-11,
-4000000,3.7101e-11,
-4100000,3.507e-11,
-4200000,3.4264e-11,
-4300000,3.3577e-11,
-4400000,3.3951e-11,
-4500000,3.2603e-11,
-4600000,3.259e-11,
-4700000,3.0989e-11,
-4800000,3.0767e-11,
-4900000,3.0283e-11,
-5000000,2.9319e-11,
-4950000,2.9783e-11,
-4850000,3.0612e-11,
-4750000,3.1956e-11,
-4650000,3.272e-11,
-4550000,3.1836e-11,
-4450000,3.3937e-11,
-4350000,3.3959e-11,
-4250000,3.3185e-11,
-4150000,3.5041e-11,
-4050000,3.5566e-11,
-3950000,3.662e-11,
-3850000,3.8504e-11,
-3750000,4.1586e-11,
-3650000,4.636e-11,
-3550000,4.8305e-11,
-3450000,5.0743e-11,
-3350000,5.1294e-11,
-3250000,5.0207e-11,
-3150000,4.971e-11,
-3050000,4.8846e-11,
-2950000,5.0587e-11,
-2850000,5.4339e-11,
-2750000,6.2319e-11,
-2650000,6.7939e-11,
-2550000,7.0501e-11,
-2450000,6.8226e-11,
-2350000,6.1404e-11,
-2250000,5.7205e-11,
-2150000,5.3212e-11,
-2050000,5.3203e-11,
-1950000,5.6932e-11,
-1850000,6.3244e-11,
-1750000,6.5415e-11,
-1650000,6.6387e-11,
-1550000,6.5771e-11,
-1450000,6.8544e-11,
-1350000,7.4715e-11,
-1250000,9.5045e-11,
-1150000,1.2196e-10,
-1050000,1.6217e-10,
-950000,1.7172e-10,
-850000,1.5679e-10,
-750000,1.2085e-10,
-650000,8.8754e-11,
-550000,6.8642e-11,
-450000,5.9667e-11,
-350000,5.7007e-11,
-250000,5.6522e-11,
-150000,5.6535e-11,
-50000,5.7186e-11,
50000,5.5225e-11,
150000,5.4824e-11,
