General parameters:
Start time: 2023              8             21             15              0      38.654595
Finish time: 2023              8             21             15              6      34.020449
Dwell time (ms): 3000.000000
Source chamber pressure: 2.00e+3
Differential chamber pressure: 7.98e-07
Sample chamber pressure: 3.84e-08
Example position (nm): -3607620.975436,267335.156398,-1000000.000000
Rotation angle (udeg): 79999710.000000
==========
Instrument status: 
0:Data Directory:/icon/data/2023_08_MoS2_5um_hbn_sub/
1:Sample:MoS2
2:Comments:no
3:PinholePlate:#C13
4:z_Zero:4200
5:Operator:djw77/nav31/kw570
==========
zscan inputs: 
z_sep:50000
z_range:200000 -5000000
data_path:/icon/data/2023_08_MoS2_5um_hbn_sub/
example_pos:-3607620.9754       267335.1564          -1000000
N_dwell:200
sampling_period:15
make_plots:0
m1:0.98976
m2:-0.0073571
==========
Detector params:
Sampling period (ms): 15.000000
N dwell: 200.000000
Filament current (A): 1.540000
Filament emission (mA): 1.742148
Solenoid current (A): NaN
Solenoid shim current (A): NaN
Lens params:
0  685
1  300
2  125
3      -0.002
4       -0.01
5       0.012
6         0.8
7         2.1
8         2.8
9  3000
10  1450
11         0.85
12   0
==========
Data:
z(nm),I(A)
200000,5.8378e-11,
100000,5.4605e-11,
0,5.6598e-11,
-100000,6.7611e-11,
-200000,7.1278e-11,
-300000,6.8435e-11,
-400000,7.0553e-11,
-500000,7.0387e-11,
-600000,6.6915e-11,
-700000,7.1631e-11,
-800000,8.616e-11,
-900000,9.9317e-11,
-1000000,9.5479e-11,
-1100000,8.2565e-11,
-1200000,7.1022e-11,
-1300000,6.0914e-11,
-1400000,6.45e-11,
-1500000,6.7758e-11,
-1600000,6.6448e-11,
-1700000,7.2417e-11,
-1800000,7.2072e-11,
-1900000,6.9324e-11,
-2000000,7.2582e-11,
-2100000,7.1247e-11,
-2200000,6.859e-11,
-2300000,6.8285e-11,
-2400000,6.4855e-11,
-2500000,6.4556e-11,
-2600000,6.751e-11,
-2700000,6.6212e-11,
-2800000,6.4907e-11,
-2900000,6.0195e-11,
-3000000,5.7206e-11,
-3100000,5.7266e-11,
-3200000,5.538e-11,
-3300000,5.4175e-11,
-3400000,5.0914e-11,
-3500000,4.8678e-11,
-3600000,4.6407e-11,
-3700000,4.4719e-11,
-3800000,4.2124e-11,
-3900000,3.9458e-11,
-4000000,3.7888e-11,
-4100000,3.6015e-11,
-4200000,3.4943e-11,
-4300000,3.3592e-11,
-4400000,3.2436e-11,
-4500000,3.1257e-11,
-4600000,3.0319e-11,
-4700000,2.9865e-11,
-4800000,2.8708e-11,
-4900000,2.7961e-11,
-5000000,2.7654e-11,
-4950000,2.721e-11,
-4850000,2.8127e-11,
-4750000,2.9109e-11,
-4650000,2.9623e-11,
-4550000,2.9969e-11,
-4450000,3.112e-11,
-4350000,3.2415e-11,
-4250000,3.4053e-11,
-4150000,3.4786e-11,
-4050000,3.754e-11,
-3950000,3.9079e-11,
-3850000,4.0846e-11,
-3750000,4.3494e-11,
-3650000,4.4316e-11,
-3550000,4.7695e-11,
-3450000,5.0272e-11,
-3350000,5.2988e-11,
-3250000,5.528e-11,
-3150000,5.7259e-11,
-3050000,5.8735e-11,
-2950000,6.1406e-11,
-2850000,6.4957e-11,
-2750000,6.6306e-11,
-2650000,6.9077e-11,
-2550000,7.0107e-11,
-2450000,7.0899e-11,
-2350000,7.3476e-11,
-2250000,7.5838e-11,
-2150000,7.9031e-11,
-2050000,8.0954e-11,
-1950000,8.299e-11,
-1850000,8.6639e-11,
-1750000,8.9942e-11,
-1650000,8.8937e-11,
-1550000,8.7472e-11,
-1450000,8.5491e-11,
-1350000,8.4475e-11,
-1250000,8.208e-11,
-1150000,8.9909e-11,
-1050000,9.7688e-11,
-950000,1.0383e-10,
-850000,1.022e-10,
-750000,8.5384e-11,
-650000,7.1017e-11,
-550000,6.9864e-11,
-450000,6.9436e-11,
-350000,6.5571e-11,
-250000,6.3774e-11,
-150000,5.9168e-11,
-50000,5.1842e-11,
50000,4.5929e-11,
150000,4.8136e-11,
