General parameters:
Start time: 2023              8             28              5             34      10.386541
Finish time: 2023              8             28              5             40       7.942151
Dwell time (ms): 3000.000000
Source chamber pressure: 2.00e+3
Differential chamber pressure: 6.31e-07
Sample chamber pressure: 3.62e-08
Example position (nm): -2720467.828879,131841.437190,-1000000.000000
Rotation angle (udeg): 137499890.000000
==========
Instrument status: 
0:Data Directory:/icon/data/2023_08_MoS2_5um_hbn_sub/
1:Sample:MoS2
2:Comments:no
3:PinholePlate:#C13
4:z_Zero:4200
5:Operator:djw77/nav31/kw570
==========
zscan inputs: 
z_sep:50000
z_range:200000 -5000000
data_path:/icon/data/2023_08_MoS2_5um_hbn_sub/
example_pos:-2720467.8289      131841.43719          -1000000
N_dwell:200
sampling_period:15
make_plots:1
m1:0.98976
m2:-0.0073571
==========
Detector params:
Sampling period (ms): 15.000000
N dwell: 200.000000
Filament current (A): 1.540000
Filament emission (mA): 1.904256
Solenoid current (A): NaN
Solenoid shim current (A): NaN
Lens params:
0  685
1  300
2  125
3      -0.002
4       -0.01
5       0.012
6         0.8
7         2.1
8         2.8
9  3000
10  1450
11         0.85
12   0
==========
Data:
z(nm),I(A)
200000,8.5137e-11,
100000,8.1941e-11,
0,7.346e-11,
-100000,6.8119e-11,
-200000,6.5455e-11,
-300000,6.5119e-11,
-400000,6.7112e-11,
-500000,6.9643e-11,
-600000,8.0107e-11,
-700000,9.6821e-11,
-800000,1.1389e-10,
-900000,1.0482e-10,
-1000000,8.6877e-11,
-1100000,7.4987e-11,
-1200000,6.5364e-11,
-1300000,6.3819e-11,
-1400000,6.1578e-11,
-1500000,6.0313e-11,
-1600000,6.2041e-11,
-1700000,6.2604e-11,
-1800000,6.0577e-11,
-1900000,5.7331e-11,
-2000000,5.6642e-11,
-2100000,5.6659e-11,
-2200000,5.7204e-11,
-2300000,5.8408e-11,
-2400000,5.7296e-11,
-2500000,5.5787e-11,
-2600000,5.4913e-11,
-2700000,5.4461e-11,
-2800000,5.4915e-11,
-2900000,5.5328e-11,
-3000000,5.757e-11,
-3100000,5.761e-11,
-3200000,5.7352e-11,
-3300000,5.6461e-11,
-3400000,5.3385e-11,
-3500000,4.9832e-11,
-3600000,4.8292e-11,
-3700000,4.4193e-11,
-3800000,4.1362e-11,
-3900000,4.0938e-11,
-4000000,3.8877e-11,
-4100000,3.9722e-11,
-4200000,4.0036e-11,
-4300000,3.9723e-11,
-4400000,3.9026e-11,
-4500000,3.8545e-11,
-4600000,3.7966e-11,
-4700000,3.6244e-11,
-4800000,3.4716e-11,
-4900000,3.3866e-11,
-5000000,3.1976e-11,
-4950000,3.2299e-11,
-4850000,3.4856e-11,
-4750000,3.5522e-11,
-4650000,3.7628e-11,
-4550000,3.8847e-11,
-4450000,3.8639e-11,
-4350000,3.9094e-11,
-4250000,3.871e-11,
-4150000,4.0257e-11,
-4050000,3.8361e-11,
-3950000,3.9849e-11,
-3850000,4.1514e-11,
-3750000,4.2639e-11,
-3650000,4.4727e-11,
-3550000,4.7706e-11,
-3450000,5.1159e-11,
-3350000,5.3631e-11,
-3250000,5.5704e-11,
-3150000,5.6829e-11,
-3050000,5.5821e-11,
-2950000,5.3882e-11,
-2850000,5.4725e-11,
-2750000,5.5034e-11,
-2650000,5.4442e-11,
-2550000,5.5382e-11,
-2450000,5.6635e-11,
-2350000,5.818e-11,
-2250000,5.6887e-11,
-2150000,5.5856e-11,
-2050000,5.6908e-11,
-1950000,5.6347e-11,
-1850000,5.8787e-11,
-1750000,5.9677e-11,
-1650000,6.1937e-11,
-1550000,6.1084e-11,
-1450000,6.0419e-11,
-1350000,6.1436e-11,
-1250000,6.3743e-11,
-1150000,6.7301e-11,
-1050000,7.7823e-11,
-950000,9.2823e-11,
-850000,1.0688e-10,
-750000,1.0825e-10,
-650000,8.968e-11,
-550000,7.4677e-11,
-450000,6.6359e-11,
-350000,6.4311e-11,
-250000,6.3507e-11,
-150000,6.5338e-11,
-50000,6.8863e-11,
50000,7.543e-11,
150000,8.1416e-11,
