General parameters:
Start time: 2023              8             22             11             48      35.555703
Finish time: 2023              8             22             11             54      31.780558
Dwell time (ms): 3000.000000
Source chamber pressure: 2.00e+3
Differential chamber pressure: 7.97e-07
Sample chamber pressure: 3.84e-08
Example position (nm): -3714868.462235,171003.865175,-1000000.000000
Rotation angle (udeg): 67500210.000000
==========
Instrument status: 
0:Data Directory:/icon/data/2023_08_MoS2_5um_hbn_sub/
1:Sample:MoS2
2:Comments:no
3:PinholePlate:#C13
4:z_Zero:4200
5:Operator:djw77/nav31/kw570
==========
zscan inputs: 
z_sep:50000
z_range:200000 -5000000
data_path:/icon/data/2023_08_MoS2_5um_hbn_sub/
example_pos:-3714868.4622      171003.86518          -1000000
N_dwell:200
sampling_period:15
make_plots:0
m1:0.98976
m2:-0.0073571
==========
Detector params:
Sampling period (ms): 15.000000
N dwell: 200.000000
Filament current (A): 1.540000
Filament emission (mA): 1.743858
Solenoid current (A): NaN
Solenoid shim current (A): NaN
Lens params:
0  685
1  300
2  125
3      -0.002
4       -0.01
5       0.012
6         0.8
7         2.1
8         2.8
9  3000
10  1450
11         0.85
12   0
==========
Data:
z(nm),I(A)
200000,4.2403e-11,
100000,4.079e-11,
0,4.0486e-11,
-100000,4.1397e-11,
-200000,4.0971e-11,
-300000,4.1668e-11,
-400000,4.2081e-11,
-500000,4.339e-11,
-600000,4.2757e-11,
-700000,4.3203e-11,
-800000,4.3515e-11,
-900000,4.503e-11,
-1000000,4.4414e-11,
-1100000,4.5509e-11,
-1200000,4.6685e-11,
-1300000,4.6258e-11,
-1400000,4.573e-11,
-1500000,4.6568e-11,
-1600000,4.7272e-11,
-1700000,4.6359e-11,
-1800000,4.7155e-11,
-1900000,4.7207e-11,
-2000000,4.7217e-11,
-2100000,4.621e-11,
-2200000,4.6945e-11,
-2300000,4.6755e-11,
-2400000,4.5728e-11,
-2500000,4.5213e-11,
-2600000,4.4869e-11,
-2700000,4.4209e-11,
-2800000,4.398e-11,
-2900000,4.3421e-11,
-3000000,4.2327e-11,
-3100000,4.1914e-11,
-3200000,4.2185e-11,
-3300000,4.0444e-11,
-3400000,3.9729e-11,
-3500000,3.9418e-11,
-3600000,3.8986e-11,
-3700000,3.7557e-11,
-3800000,3.7959e-11,
-3900000,3.676e-11,
-4000000,3.5865e-11,
-4100000,3.5152e-11,
-4200000,3.5133e-11,
-4300000,3.4605e-11,
-4400000,3.3698e-11,
-4500000,3.3485e-11,
-4600000,3.1992e-11,
-4700000,3.1171e-11,
-4800000,3.1399e-11,
-4900000,3.0252e-11,
-5000000,3.0077e-11,
-4950000,3.0853e-11,
-4850000,3.1042e-11,
-4750000,3.1011e-11,
-4650000,3.2342e-11,
-4550000,3.1888e-11,
-4450000,3.2918e-11,
-4350000,3.2845e-11,
-4250000,3.4566e-11,
-4150000,3.4769e-11,
-4050000,3.5006e-11,
-3950000,3.5902e-11,
-3850000,3.6516e-11,
-3750000,3.7605e-11,
-3650000,3.8378e-11,
-3550000,3.9031e-11,
-3450000,3.9953e-11,
-3350000,3.9725e-11,
-3250000,4.073e-11,
-3150000,4.2477e-11,
-3050000,4.1873e-11,
-2950000,4.3036e-11,
-2850000,4.3645e-11,
-2750000,4.4845e-11,
-2650000,4.4059e-11,
-2550000,4.4651e-11,
-2450000,4.5902e-11,
-2350000,4.6092e-11,
-2250000,4.6602e-11,
-2150000,4.7045e-11,
-2050000,4.7186e-11,
-1950000,4.6635e-11,
-1850000,4.6943e-11,
-1750000,4.6954e-11,
-1650000,4.6447e-11,
-1550000,4.7206e-11,
-1450000,4.6518e-11,
-1350000,4.6505e-11,
-1250000,4.6337e-11,
-1150000,4.5444e-11,
-1050000,4.4963e-11,
-950000,4.5801e-11,
-850000,4.4006e-11,
-750000,4.5374e-11,
-650000,4.3973e-11,
-550000,4.3085e-11,
-450000,4.3145e-11,
-350000,4.2111e-11,
-250000,4.1677e-11,
-150000,4.0758e-11,
-50000,4.1214e-11,
50000,4.1534e-11,
150000,4.3127e-11,
