General parameters:
Start time: 2023              8             18             14             42      45.913112
Finish time: 2023              8             18             14             48      43.180235
Dwell time (ms): 3000.000000
Source chamber pressure: 2.00e+3
Differential chamber pressure: 7.87e-07
Sample chamber pressure: 3.84e-08
Example position (nm): -2911629.425768,229553.616225,-1000000.000000
Rotation angle (udeg): 124999910.000000
==========
Instrument status: 
0:Data Directory:/icon/data/2023_08_MoS2_5um_hbn_sub/
1:Sample:MoS2
2:Comments:no
3:PinholePlate:#C13
4:z_Zero:4200
5:Operator:djw77/nav31/kw570
==========
zscan inputs: 
z_sep:50000
z_range:200000 -5000000
data_path:/icon/data/2023_08_MoS2_5um_hbn_sub/
example_pos:-2911629.4258      229553.61622          -1000000
N_dwell:200
sampling_period:15
make_plots:1
m1:0.98976
m2:-0.0073571
==========
Detector params:
Sampling period (ms): 15.000000
N dwell: 200.000000
Filament current (A): 1.540000
Filament emission (mA): 1.663830
Solenoid current (A): NaN
Solenoid shim current (A): NaN
Lens params:
0  685
1  300
2  125
3      -0.002
4       -0.01
5       0.012
6         0.8
7         2.1
8         2.8
9  3000
10  1450
11         0.85
12   0
==========
Data:
z(nm),I(A)
200000,5.0596e-11,
100000,5.2195e-11,
0,5.2223e-11,
-100000,5.2755e-11,
-200000,5.0982e-11,
-300000,5.1412e-11,
-400000,5.1114e-11,
-500000,5.3048e-11,
-600000,5.666e-11,
-700000,6.2249e-11,
-800000,7.0061e-11,
-900000,7.8369e-11,
-1000000,7.1391e-11,
-1100000,6.3054e-11,
-1200000,5.752e-11,
-1300000,5.4681e-11,
-1400000,5.4069e-11,
-1500000,5.5087e-11,
-1600000,5.8511e-11,
-1700000,6.3066e-11,
-1800000,6.1764e-11,
-1900000,5.8593e-11,
-2000000,5.5004e-11,
-2100000,5.18e-11,
-2200000,5.0308e-11,
-2300000,5.1017e-11,
-2400000,5.6508e-11,
-2500000,7.0522e-11,
-2600000,8.1904e-11,
-2700000,8.6703e-11,
-2800000,8.4819e-11,
-2900000,7.2887e-11,
-3000000,6.0595e-11,
-3100000,5.0332e-11,
-3200000,4.6099e-11,
-3300000,4.4278e-11,
-3400000,4.4438e-11,
-3500000,4.6102e-11,
-3600000,4.9774e-11,
-3700000,5.1445e-11,
-3800000,5.1567e-11,
-3900000,5.073e-11,
-4000000,4.987e-11,
-4100000,4.3583e-11,
-4200000,3.7e-11,
-4300000,3.2964e-11,
-4400000,3.0078e-11,
-4500000,2.8481e-11,
-4600000,2.759e-11,
-4700000,2.6644e-11,
-4800000,2.6508e-11,
-4900000,2.553e-11,
-5000000,2.5854e-11,
-4950000,2.5683e-11,
-4850000,2.6369e-11,
-4750000,2.718e-11,
-4650000,2.7338e-11,
-4550000,2.7385e-11,
-4450000,2.8982e-11,
-4350000,3.1883e-11,
-4250000,3.4118e-11,
-4150000,3.9049e-11,
-4050000,4.6143e-11,
-3950000,5.0069e-11,
-3850000,5.2005e-11,
-3750000,5.1464e-11,
-3650000,4.8665e-11,
-3550000,4.8979e-11,
-3450000,4.6016e-11,
-3350000,4.5196e-11,
-3250000,4.4123e-11,
-3150000,4.6877e-11,
-3050000,5.3505e-11,
-2950000,6.6968e-11,
-2850000,8.0596e-11,
-2750000,8.7324e-11,
-2650000,8.8763e-11,
-2550000,7.8389e-11,
-2450000,6.4316e-11,
-2350000,5.4817e-11,
-2250000,5.0747e-11,
-2150000,4.8905e-11,
-2050000,5.0821e-11,
-1950000,5.7133e-11,
-1850000,5.9703e-11,
-1750000,6.4022e-11,
-1650000,6.1993e-11,
-1550000,5.7117e-11,
-1450000,5.2667e-11,
-1350000,5.1605e-11,
-1250000,5.3277e-11,
-1150000,5.7028e-11,
-1050000,6.3942e-11,
-950000,7.8699e-11,
-850000,8.048e-11,
-750000,6.8567e-11,
-650000,5.9702e-11,
-550000,5.44e-11,
-450000,5.2112e-11,
-350000,5.2549e-11,
-250000,5.2056e-11,
-150000,5.1538e-11,
-50000,5.2884e-11,
50000,5.3142e-11,
150000,5.212e-11,
