General parameters:
Start time: 2023              8             21             16             54      48.310584
Finish time: 2023              8             21             17              0      42.746197
Dwell time (ms): 3000.000000
Source chamber pressure: 2.00e+3
Differential chamber pressure: 7.96e-07
Sample chamber pressure: 3.79e-08
Example position (nm): -2936430.806858,208660.536332,-1000000.000000
Rotation angle (udeg): 127500090.000000
==========
Instrument status: 
0:Data Directory:/icon/data/2023_08_MoS2_5um_hbn_sub/
1:Sample:MoS2
2:Comments:no
3:PinholePlate:#C13
4:z_Zero:4200
5:Operator:djw77/nav31/kw570
==========
zscan inputs: 
z_sep:50000
z_range:200000 -5000000
data_path:/icon/data/2023_08_MoS2_5um_hbn_sub/
example_pos:-2936430.8069      208660.53633          -1000000
N_dwell:200
sampling_period:15
make_plots:0
m1:0.98976
m2:-0.0073571
==========
Detector params:
Sampling period (ms): 15.000000
N dwell: 200.000000
Filament current (A): 1.540000
Filament emission (mA): 1.738728
Solenoid current (A): NaN
Solenoid shim current (A): NaN
Lens params:
0  685
1  300
2  125
3      -0.002
4       -0.01
5       0.012
6         0.8
7         2.1
8         2.8
9  3000
10  1450
11         0.85
12   0
==========
Data:
z(nm),I(A)
200000,4.5738e-11,
100000,4.6341e-11,
0,4.664e-11,
-100000,4.6891e-11,
-200000,4.6527e-11,
-300000,4.6711e-11,
-400000,4.7767e-11,
-500000,4.7009e-11,
-600000,4.6896e-11,
-700000,4.7768e-11,
-800000,4.7824e-11,
-900000,4.8033e-11,
-1000000,4.9507e-11,
-1100000,4.8382e-11,
-1200000,4.8938e-11,
-1300000,4.9376e-11,
-1400000,4.8093e-11,
-1500000,4.8495e-11,
-1600000,4.8149e-11,
-1700000,4.8954e-11,
-1800000,4.8836e-11,
-1900000,4.9422e-11,
-2000000,4.851e-11,
-2100000,4.8135e-11,
-2200000,4.8054e-11,
-2300000,4.6829e-11,
-2400000,4.6985e-11,
-2500000,4.6763e-11,
-2600000,4.6884e-11,
-2700000,4.5889e-11,
-2800000,4.4653e-11,
-2900000,4.5061e-11,
-3000000,4.4097e-11,
-3100000,4.2688e-11,
-3200000,4.2615e-11,
-3300000,4.1681e-11,
-3400000,4.0687e-11,
-3500000,4.0966e-11,
-3600000,4.0359e-11,
-3700000,4.0375e-11,
-3800000,3.8342e-11,
-3900000,3.6334e-11,
-4000000,3.6362e-11,
-4100000,3.623e-11,
-4200000,3.5405e-11,
-4300000,3.409e-11,
-4400000,3.4751e-11,
-4500000,3.2984e-11,
-4600000,3.317e-11,
-4700000,3.1745e-11,
-4800000,3.1971e-11,
-4900000,3.153e-11,
-5000000,3.106e-11,
-4950000,3.0444e-11,
-4850000,3.129e-11,
-4750000,3.1959e-11,
-4650000,3.2346e-11,
-4550000,3.3148e-11,
-4450000,3.4588e-11,
-4350000,3.52e-11,
-4250000,3.5523e-11,
-4150000,3.533e-11,
-4050000,3.6271e-11,
-3950000,3.7413e-11,
-3850000,3.6933e-11,
-3750000,3.8483e-11,
-3650000,3.9085e-11,
-3550000,3.9198e-11,
-3450000,3.9719e-11,
-3350000,4.1727e-11,
-3250000,4.2198e-11,
-3150000,4.3006e-11,
-3050000,4.2998e-11,
-2950000,4.3245e-11,
-2850000,4.4499e-11,
-2750000,4.5246e-11,
-2650000,4.5454e-11,
-2550000,4.6448e-11,
-2450000,4.7525e-11,
-2350000,4.6937e-11,
-2250000,4.8462e-11,
-2150000,4.8813e-11,
-2050000,4.8642e-11,
-1950000,4.8594e-11,
-1850000,4.8456e-11,
-1750000,4.924e-11,
-1650000,4.8943e-11,
-1550000,4.9e-11,
-1450000,4.8184e-11,
-1350000,4.8758e-11,
-1250000,5.0065e-11,
-1150000,4.7833e-11,
-1050000,4.8632e-11,
-950000,4.8716e-11,
-850000,4.8646e-11,
-750000,4.7743e-11,
-650000,4.8196e-11,
-550000,4.7788e-11,
-450000,4.7006e-11,
-350000,4.6896e-11,
-250000,4.687e-11,
-150000,4.6566e-11,
-50000,4.6424e-11,
50000,4.6695e-11,
150000,4.6182e-11,
