General parameters:
Start time: 2023              8             22              1             39      52.333086
Finish time: 2023              8             22              1             45      49.293774
Dwell time (ms): 3000.000000
Source chamber pressure: 2.00e+3
Differential chamber pressure: 7.99e-07
Sample chamber pressure: 3.78e-08
Example position (nm): -3576627.190375,291930.658303,-1000000.000000
Rotation angle (udeg): 82499940.000000
==========
Instrument status: 
0:Data Directory:/icon/data/2023_08_MoS2_5um_hbn_sub/
1:Sample:MoS2
2:Comments:no
3:PinholePlate:#C13
4:z_Zero:4200
5:Operator:djw77/nav31/kw570
==========
zscan inputs: 
z_sep:50000
z_range:200000 -5000000
data_path:/icon/data/2023_08_MoS2_5um_hbn_sub/
example_pos:-3576627.1904       291930.6583          -1000000
N_dwell:200
sampling_period:15
make_plots:0
m1:0.98976
m2:-0.0073571
==========
Detector params:
Sampling period (ms): 15.000000
N dwell: 200.000000
Filament current (A): 1.540000
Filament emission (mA): 1.750356
Solenoid current (A): NaN
Solenoid shim current (A): NaN
Lens params:
0  685
1  300
2  125
3      -0.002
4       -0.01
5       0.012
6         0.8
7         2.1
8         2.8
9  3000
10  1450
11         0.85
12   0
==========
Data:
z(nm),I(A)
200000,4.0674e-11,
100000,4.0215e-11,
0,3.9825e-11,
-100000,4.1102e-11,
-200000,4.045e-11,
-300000,4.2125e-11,
-400000,4.2415e-11,
-500000,4.2131e-11,
-600000,4.2605e-11,
-700000,4.3984e-11,
-800000,4.5982e-11,
-900000,5.2371e-11,
-1000000,5.0203e-11,
-1100000,4.7503e-11,
-1200000,4.6541e-11,
-1300000,4.518e-11,
-1400000,4.6261e-11,
-1500000,4.6961e-11,
-1600000,4.6874e-11,
-1700000,4.6101e-11,
-1800000,4.8265e-11,
-1900000,4.8402e-11,
-2000000,4.804e-11,
-2100000,4.9281e-11,
-2200000,4.8897e-11,
-2300000,4.7971e-11,
-2400000,4.7858e-11,
-2500000,4.8043e-11,
-2600000,4.9195e-11,
-2700000,4.7686e-11,
-2800000,4.7643e-11,
-2900000,4.5538e-11,
-3000000,4.4228e-11,
-3100000,4.3663e-11,
-3200000,4.3935e-11,
-3300000,4.4899e-11,
-3400000,4.3306e-11,
-3500000,4.2203e-11,
-3600000,4.0578e-11,
-3700000,3.8517e-11,
-3800000,3.6609e-11,
-3900000,3.7415e-11,
-4000000,3.5446e-11,
-4100000,3.3929e-11,
-4200000,3.3058e-11,
-4300000,3.1519e-11,
-4400000,3.0285e-11,
-4500000,2.9699e-11,
-4600000,3.0231e-11,
-4700000,2.8026e-11,
-4800000,2.854e-11,
-4900000,2.7989e-11,
-5000000,2.7858e-11,
-4950000,2.6444e-11,
-4850000,2.8451e-11,
-4750000,2.9091e-11,
-4650000,2.9582e-11,
-4550000,3.0101e-11,
-4450000,3.0265e-11,
-4350000,3.1225e-11,
-4250000,3.0982e-11,
-4150000,3.3704e-11,
-4050000,3.4027e-11,
-3950000,3.5975e-11,
-3850000,3.6427e-11,
-3750000,3.8318e-11,
-3650000,3.9651e-11,
-3550000,4.2716e-11,
-3450000,4.4035e-11,
-3350000,4.549e-11,
-3250000,4.4129e-11,
-3150000,4.5788e-11,
-3050000,4.462e-11,
-2950000,4.6431e-11,
-2850000,4.7705e-11,
-2750000,4.9201e-11,
-2650000,5.1392e-11,
-2550000,5.1942e-11,
-2450000,4.9562e-11,
-2350000,5.1231e-11,
-2250000,5.2126e-11,
-2150000,5.4609e-11,
-2050000,5.4124e-11,
-1950000,5.4753e-11,
-1850000,5.583e-11,
-1750000,5.4908e-11,
-1650000,5.3778e-11,
-1550000,5.1497e-11,
-1450000,4.9581e-11,
-1350000,5.0537e-11,
-1250000,4.8494e-11,
-1150000,5.2648e-11,
-1050000,5.9648e-11,
-950000,6.9231e-11,
-850000,6.1846e-11,
-750000,5.2306e-11,
-650000,4.6492e-11,
-550000,4.6761e-11,
-450000,4.5487e-11,
-350000,4.4866e-11,
-250000,4.391e-11,
-150000,4.2787e-11,
-50000,4.0978e-11,
50000,4.0361e-11,
150000,4.091e-11,
