General parameters:
Start time: 2023              8             18             20             33      36.748057
Finish time: 2023              8             18             20             39      33.967375
Dwell time (ms): 3000.000000
Source chamber pressure: 2.00e+3
Differential chamber pressure: 7.93e-07
Sample chamber pressure: 3.79e-08
Example position (nm): -2768293.821045,116513.234975,-1000000.000000
Rotation angle (udeg): 134999780.000000
==========
Instrument status: 
0:Data Directory:/icon/data/2023_08_MoS2_5um_hbn_sub/
1:Sample:MoS2
2:Comments:no
3:PinholePlate:#C13
4:z_Zero:4200
5:Operator:djw77/nav31/kw570
==========
zscan inputs: 
z_sep:50000
z_range:200000 -5000000
data_path:/icon/data/2023_08_MoS2_5um_hbn_sub/
example_pos:-2768293.821      116513.23497          -1000000
N_dwell:200
sampling_period:15
make_plots:0
m1:0.98976
m2:-0.0073571
==========
Detector params:
Sampling period (ms): 15.000000
N dwell: 200.000000
Filament current (A): 1.540000
Filament emission (mA): 1.673748
Solenoid current (A): NaN
Solenoid shim current (A): NaN
Lens params:
0  685
1  300
2  125
3      -0.002
4       -0.01
5       0.012
6         0.8
7         2.1
8         2.8
9  3000
10  1450
11         0.85
12   0
==========
Data:
z(nm),I(A)
200000,4.2248e-11,
100000,4.1107e-11,
0,4.188e-11,
-100000,4.1907e-11,
-200000,4.2521e-11,
-300000,4.2741e-11,
-400000,4.1225e-11,
-500000,4.2776e-11,
-600000,4.2003e-11,
-700000,4.2706e-11,
-800000,4.3212e-11,
-900000,4.2706e-11,
-1000000,4.2997e-11,
-1100000,4.3429e-11,
-1200000,4.2918e-11,
-1300000,4.3928e-11,
-1400000,4.3846e-11,
-1500000,4.2585e-11,
-1600000,4.3228e-11,
-1700000,4.4052e-11,
-1800000,4.2681e-11,
-1900000,4.3722e-11,
-2000000,4.3233e-11,
-2100000,4.2794e-11,
-2200000,4.2071e-11,
-2300000,4.2798e-11,
-2400000,4.1946e-11,
-2500000,4.1317e-11,
-2600000,4.1006e-11,
-2700000,4.0225e-11,
-2800000,4.0333e-11,
-2900000,3.9194e-11,
-3000000,3.8223e-11,
-3100000,3.7578e-11,
-3200000,3.7982e-11,
-3300000,3.7143e-11,
-3400000,3.5558e-11,
-3500000,3.5925e-11,
-3600000,3.49e-11,
-3700000,3.3776e-11,
-3800000,3.3056e-11,
-3900000,3.3314e-11,
-4000000,3.1801e-11,
-4100000,3.1859e-11,
-4200000,3.1816e-11,
-4300000,3.0786e-11,
-4400000,3.0739e-11,
-4500000,2.8787e-11,
-4600000,2.8893e-11,
-4700000,2.778e-11,
-4800000,2.7673e-11,
-4900000,2.6888e-11,
-5000000,2.7265e-11,
-4950000,2.7434e-11,
-4850000,2.7456e-11,
-4750000,2.7996e-11,
-4650000,2.8888e-11,
-4550000,2.9689e-11,
-4450000,3.0055e-11,
-4350000,3.047e-11,
-4250000,3.1316e-11,
-4150000,3.1701e-11,
-4050000,3.207e-11,
-3950000,3.2419e-11,
-3850000,3.3774e-11,
-3750000,3.3726e-11,
-3650000,3.5361e-11,
-3550000,3.5302e-11,
-3450000,3.5326e-11,
-3350000,3.6808e-11,
-3250000,3.7829e-11,
-3150000,3.7798e-11,
-3050000,3.8912e-11,
-2950000,3.9308e-11,
-2850000,3.974e-11,
-2750000,3.9961e-11,
-2650000,4.0648e-11,
-2550000,4.1792e-11,
-2450000,4.1822e-11,
-2350000,4.2071e-11,
-2250000,4.2444e-11,
-2150000,4.2211e-11,
-2050000,4.3198e-11,
-1950000,4.3388e-11,
-1850000,4.2908e-11,
-1750000,4.264e-11,
-1650000,4.247e-11,
-1550000,4.3092e-11,
-1450000,4.4251e-11,
-1350000,4.3918e-11,
-1250000,4.3993e-11,
-1150000,4.3273e-11,
-1050000,4.3248e-11,
-950000,4.356e-11,
-850000,4.1978e-11,
-750000,4.3248e-11,
-650000,4.2419e-11,
-550000,4.233e-11,
-450000,4.1505e-11,
-350000,4.2967e-11,
-250000,4.1885e-11,
-150000,4.2407e-11,
-50000,4.0906e-11,
50000,4.151e-11,
150000,4.1587e-11,
