General parameters:
Start time: 2023              8             22              1             58       0.167267
Finish time: 2023              8             22              2              3      56.233536
Dwell time (ms): 3000.000000
Source chamber pressure: 2.00e+3
Differential chamber pressure: 7.98e-07
Sample chamber pressure: 3.79e-08
Example position (nm): -3468000.000000,316000.000000,-1000000.000000
Rotation angle (udeg): 90000175.000000
==========
Instrument status: 
0:Data Directory:/icon/data/2023_08_MoS2_5um_hbn_sub/
1:Sample:MoS2
2:Comments:no
3:PinholePlate:#C13
4:z_Zero:4200
5:Operator:djw77/nav31/kw570
==========
zscan inputs: 
z_sep:50000
z_range:200000 -5000000
data_path:/icon/data/2023_08_MoS2_5um_hbn_sub/
example_pos:-3468000   316000 -1000000
N_dwell:200
sampling_period:15
make_plots:0
m1:0.98976
m2:-0.0073571
==========
Detector params:
Sampling period (ms): 15.000000
N dwell: 200.000000
Filament current (A): 1.540000
Filament emission (mA): 1.751382
Solenoid current (A): NaN
Solenoid shim current (A): NaN
Lens params:
0  685
1  300
2  125
3      -0.002
4       -0.01
5       0.012
6         0.8
7         2.1
8         2.8
9  3000
10  1450
11         0.85
12   0
==========
Data:
z(nm),I(A)
200000,7.4489e-11,
100000,7.2969e-11,
0,6.7054e-11,
-100000,6.3304e-11,
-200000,6.0046e-11,
-300000,5.4792e-11,
-400000,5.2787e-11,
-500000,5.4718e-11,
-600000,6.1509e-11,
-700000,7.8968e-11,
-800000,1.0894e-10,
-900000,1.4083e-10,
-1000000,1.5048e-10,
-1100000,1.3463e-10,
-1200000,1.0156e-10,
-1300000,7.7998e-11,
-1400000,6.3352e-11,
-1500000,5.7235e-11,
-1600000,5.3042e-11,
-1700000,4.9506e-11,
-1800000,4.9735e-11,
-1900000,4.8029e-11,
-2000000,4.8005e-11,
-2100000,4.8608e-11,
-2200000,5.1574e-11,
-2300000,5.8574e-11,
-2400000,6.4469e-11,
-2500000,6.9725e-11,
-2600000,6.8813e-11,
-2700000,6.3369e-11,
-2800000,5.4664e-11,
-2900000,4.4967e-11,
-3000000,4.1314e-11,
-3100000,3.9601e-11,
-3200000,3.8561e-11,
-3300000,3.9342e-11,
-3400000,4.0714e-11,
-3500000,4.0641e-11,
-3600000,4.0301e-11,
-3700000,3.8572e-11,
-3800000,3.6783e-11,
-3900000,3.369e-11,
-4000000,3.2571e-11,
-4100000,3.1056e-11,
-4200000,2.9144e-11,
-4300000,2.8862e-11,
-4400000,2.7734e-11,
-4500000,2.8096e-11,
-4600000,2.7441e-11,
-4700000,2.6596e-11,
-4800000,2.4624e-11,
-4900000,2.4528e-11,
-5000000,2.4251e-11,
-4950000,2.4616e-11,
-4850000,2.5207e-11,
-4750000,2.6336e-11,
-4650000,2.6435e-11,
-4550000,2.7021e-11,
-4450000,2.812e-11,
-4350000,2.9157e-11,
-4250000,2.9174e-11,
-4150000,2.9918e-11,
-4050000,3.1823e-11,
-3950000,3.3779e-11,
-3850000,3.4944e-11,
-3750000,3.8313e-11,
-3650000,3.8905e-11,
-3550000,4.1318e-11,
-3450000,4.0315e-11,
-3350000,3.9435e-11,
-3250000,3.9599e-11,
-3150000,3.8497e-11,
-3050000,3.9486e-11,
-2950000,4.3072e-11,
-2850000,4.8725e-11,
-2750000,5.7546e-11,
-2650000,6.5363e-11,
-2550000,6.9574e-11,
-2450000,6.8496e-11,
-2350000,6.2258e-11,
-2250000,5.4139e-11,
-2150000,5.0827e-11,
-2050000,4.7707e-11,
-1950000,4.8691e-11,
-1850000,4.831e-11,
-1750000,4.8391e-11,
-1650000,5.0222e-11,
-1550000,5.3528e-11,
-1450000,5.9273e-11,
-1350000,6.9428e-11,
-1250000,8.6446e-11,
-1150000,1.1288e-10,
-1050000,1.4395e-10,
-950000,1.5393e-10,
-850000,1.3235e-10,
-750000,9.5546e-11,
-650000,6.9164e-11,
-550000,5.7838e-11,
-450000,5.2767e-11,
-350000,5.2426e-11,
-250000,5.5869e-11,
-150000,5.9836e-11,
-50000,6.5113e-11,
50000,6.9266e-11,
150000,7.4078e-11,
