General parameters:
Start time: 2023              8             21             23             52      16.003697
Finish time: 2023              8             21             23             58      13.995262
Dwell time (ms): 3000.000000
Source chamber pressure: 2.00e+3
Differential chamber pressure: 7.97e-07
Sample chamber pressure: 3.78e-08
Example position (nm): -2835664.235864,161193.577751,-1000000.000000
Rotation angle (udeg): 134999960.000000
==========
Instrument status: 
0:Data Directory:/icon/data/2023_08_MoS2_5um_hbn_sub/
1:Sample:MoS2
2:Comments:no
3:PinholePlate:#C13
4:z_Zero:4200
5:Operator:djw77/nav31/kw570
==========
zscan inputs: 
z_sep:50000
z_range:200000 -5000000
data_path:/icon/data/2023_08_MoS2_5um_hbn_sub/
example_pos:-2835664.2359      161193.57775          -1000000
N_dwell:200
sampling_period:15
make_plots:0
m1:0.98976
m2:-0.0073571
==========
Detector params:
Sampling period (ms): 15.000000
N dwell: 200.000000
Filament current (A): 1.540000
Filament emission (mA): 1.747278
Solenoid current (A): NaN
Solenoid shim current (A): NaN
Lens params:
0  685
1  300
2  125
3      -0.002
4       -0.01
5       0.012
6         0.8
7         2.1
8         2.8
9  3000
10  1450
11         0.85
12   0
==========
Data:
z(nm),I(A)
200000,4.4675e-11,
100000,4.521e-11,
0,4.5079e-11,
-100000,4.4191e-11,
-200000,4.4941e-11,
-300000,4.5417e-11,
-400000,4.6164e-11,
-500000,4.467e-11,
-600000,4.5548e-11,
-700000,4.5233e-11,
-800000,4.6697e-11,
-900000,4.6623e-11,
-1000000,4.5362e-11,
-1100000,4.7031e-11,
-1200000,4.6444e-11,
-1300000,4.6761e-11,
-1400000,4.6763e-11,
-1500000,4.6137e-11,
-1600000,4.7129e-11,
-1700000,4.6931e-11,
-1800000,4.6252e-11,
-1900000,4.5926e-11,
-2000000,4.738e-11,
-2100000,4.4764e-11,
-2200000,4.5501e-11,
-2300000,4.6609e-11,
-2400000,4.5012e-11,
-2500000,4.4896e-11,
-2600000,4.3193e-11,
-2700000,4.3414e-11,
-2800000,4.3599e-11,
-2900000,4.3561e-11,
-3000000,4.1868e-11,
-3100000,4.0938e-11,
-3200000,4.0533e-11,
-3300000,4.0263e-11,
-3400000,3.9666e-11,
-3500000,3.8929e-11,
-3600000,3.8296e-11,
-3700000,3.7213e-11,
-3800000,3.5718e-11,
-3900000,3.6376e-11,
-4000000,3.6522e-11,
-4100000,3.4172e-11,
-4200000,3.3707e-11,
-4300000,3.3196e-11,
-4400000,3.2601e-11,
-4500000,3.2302e-11,
-4600000,3.1422e-11,
-4700000,3.1249e-11,
-4800000,3.0321e-11,
-4900000,2.9625e-11,
-5000000,2.9264e-11,
-4950000,2.9875e-11,
-4850000,3.0189e-11,
-4750000,3.0475e-11,
-4650000,3.1674e-11,
-4550000,3.2934e-11,
-4450000,3.2732e-11,
-4350000,3.2022e-11,
-4250000,3.4076e-11,
-4150000,3.3547e-11,
-4050000,3.5199e-11,
-3950000,3.4949e-11,
-3850000,3.5919e-11,
-3750000,3.7152e-11,
-3650000,3.7619e-11,
-3550000,3.9113e-11,
-3450000,3.8393e-11,
-3350000,3.9532e-11,
-3250000,4.0015e-11,
-3150000,4.0045e-11,
-3050000,4.1308e-11,
-2950000,4.2336e-11,
-2850000,4.2851e-11,
-2750000,4.436e-11,
-2650000,4.3416e-11,
-2550000,4.4942e-11,
-2450000,4.4587e-11,
-2350000,4.5951e-11,
-2250000,4.5686e-11,
-2150000,4.5414e-11,
-2050000,4.7643e-11,
-1950000,4.595e-11,
-1850000,4.7192e-11,
-1750000,4.7849e-11,
-1650000,4.6795e-11,
-1550000,4.6537e-11,
-1450000,4.6234e-11,
-1350000,4.8239e-11,
-1250000,4.7066e-11,
-1150000,4.534e-11,
-1050000,4.6895e-11,
-950000,4.7459e-11,
-850000,4.7247e-11,
-750000,4.5251e-11,
-650000,4.5683e-11,
-550000,4.5871e-11,
-450000,4.4893e-11,
-350000,4.4662e-11,
-250000,4.583e-11,
-150000,4.4976e-11,
-50000,4.5124e-11,
50000,4.4893e-11,
150000,4.4011e-11,
