General parameters:
Start time: 2023              8             28              3             45      37.122674
Finish time: 2023              8             28              3             51      34.117914
Dwell time (ms): 3000.000000
Source chamber pressure: 2.00e+3
Differential chamber pressure: 6.35e-07
Sample chamber pressure: 3.58e-08
Example position (nm): -3428674.502876,322320.720138,-1000000.000000
Rotation angle (udeg): 92499750.000000
==========
Instrument status: 
0:Data Directory:/icon/data/2023_08_MoS2_5um_hbn_sub/
1:Sample:MoS2
2:Comments:no
3:PinholePlate:#C13
4:z_Zero:4200
5:Operator:djw77/nav31/kw570
==========
zscan inputs: 
z_sep:50000
z_range:200000 -5000000
data_path:/icon/data/2023_08_MoS2_5um_hbn_sub/
example_pos:-3428674.5029      322320.72014          -1000000
N_dwell:200
sampling_period:15
make_plots:1
m1:0.98976
m2:-0.0073571
==========
Detector params:
Sampling period (ms): 15.000000
N dwell: 200.000000
Filament current (A): 1.540000
Filament emission (mA): 1.900494
Solenoid current (A): NaN
Solenoid shim current (A): NaN
Lens params:
0  685
1  300
2  125
3      -0.002
4       -0.01
5       0.012
6         0.8
7         2.1
8         2.8
9  3000
10  1450
11         0.85
12   0
==========
Data:
z(nm),I(A)
200000,7.0756e-11,
100000,7.1589e-11,
0,7.0925e-11,
-100000,6.8559e-11,
-200000,6.407e-11,
-300000,6.0689e-11,
-400000,5.9549e-11,
-500000,6.1676e-11,
-600000,7.0437e-11,
-700000,9.0848e-11,
-800000,1.3571e-10,
-900000,1.8645e-10,
-1000000,1.8735e-10,
-1100000,1.5843e-10,
-1200000,1.1355e-10,
-1300000,8.5859e-11,
-1400000,7.268e-11,
-1500000,6.2817e-11,
-1600000,5.9508e-11,
-1700000,5.6363e-11,
-1800000,5.5901e-11,
-1900000,5.2986e-11,
-2000000,5.3109e-11,
-2100000,5.3415e-11,
-2200000,5.6796e-11,
-2300000,6.6618e-11,
-2400000,7.7983e-11,
-2500000,8.3201e-11,
-2600000,8.6618e-11,
-2700000,7.98e-11,
-2800000,6.7461e-11,
-2900000,5.5241e-11,
-3000000,4.6754e-11,
-3100000,4.3201e-11,
-3200000,4.2002e-11,
-3300000,4.1039e-11,
-3400000,4.106e-11,
-3500000,4.0319e-11,
-3600000,4.0017e-11,
-3700000,3.7898e-11,
-3800000,3.8231e-11,
-3900000,3.5847e-11,
-4000000,3.5596e-11,
-4100000,3.4095e-11,
-4200000,3.3864e-11,
-4300000,3.4255e-11,
-4400000,3.3615e-11,
-4500000,3.2941e-11,
-4600000,3.1759e-11,
-4700000,3.1417e-11,
-4800000,3.1267e-11,
-4900000,3.0045e-11,
-5000000,2.8069e-11,
-4950000,2.8618e-11,
-4850000,3.0121e-11,
-4750000,3.1717e-11,
-4650000,3.3049e-11,
-4550000,3.3115e-11,
-4450000,3.4608e-11,
-4350000,3.3734e-11,
-4250000,3.3628e-11,
-4150000,3.4005e-11,
-4050000,3.4646e-11,
-3950000,3.5246e-11,
-3850000,3.7036e-11,
-3750000,3.8059e-11,
-3650000,3.9232e-11,
-3550000,4.0069e-11,
-3450000,4.0233e-11,
-3350000,4.0949e-11,
-3250000,4.05e-11,
-3150000,4.2515e-11,
-3050000,4.3189e-11,
-2950000,4.9086e-11,
-2850000,6.0182e-11,
-2750000,7.1659e-11,
-2650000,8.3458e-11,
-2550000,8.695e-11,
-2450000,8.3868e-11,
-2350000,7.4743e-11,
-2250000,6.2653e-11,
-2150000,5.5771e-11,
-2050000,5.2352e-11,
-1950000,5.2633e-11,
-1850000,5.4404e-11,
-1750000,5.576e-11,
-1650000,5.8217e-11,
-1550000,6.2612e-11,
-1450000,6.6859e-11,
-1350000,7.8761e-11,
-1250000,9.8912e-11,
-1150000,1.3599e-10,
-1050000,1.7862e-10,
-950000,1.9942e-10,
-850000,1.7443e-10,
-750000,1.1692e-10,
-650000,8.1786e-11,
-550000,6.7346e-11,
-450000,6.1604e-11,
-350000,6.0534e-11,
-250000,6.2996e-11,
-150000,6.539e-11,
-50000,6.9324e-11,
50000,7.0531e-11,
150000,7.0732e-11,
