General parameters:
Start time: 2023              8             22             10             54      35.977141
Finish time: 2023              8             22             11              0      30.091293
Dwell time (ms): 3000.000000
Source chamber pressure: 2.00e+3
Differential chamber pressure: 7.97e-07
Sample chamber pressure: 3.79e-08
Example position (nm): -3952468.686070,-25906.876551,-1000000.000000
Rotation angle (udeg): 45000000.000000
==========
Instrument status: 
0:Data Directory:/icon/data/2023_08_MoS2_5um_hbn_sub/
1:Sample:MoS2
2:Comments:no
3:PinholePlate:#C13
4:z_Zero:4200
5:Operator:djw77/nav31/kw570
==========
zscan inputs: 
z_sep:50000
z_range:200000 -5000000
data_path:/icon/data/2023_08_MoS2_5um_hbn_sub/
example_pos:-3952468.6861     -25906.876551          -1000000
N_dwell:200
sampling_period:15
make_plots:0
m1:0.98976
m2:-0.0073571
==========
Detector params:
Sampling period (ms): 15.000000
N dwell: 200.000000
Filament current (A): 1.540000
Filament emission (mA): 1.753092
Solenoid current (A): NaN
Solenoid shim current (A): NaN
Lens params:
0  685
1  300
2  125
3      -0.002
4       -0.01
5       0.012
6         0.8
7         2.1
8         2.8
9  3000
10  1450
11         0.85
12   0
==========
Data:
z(nm),I(A)
200000,3.9498e-11,
100000,3.906e-11,
0,3.9301e-11,
-100000,3.9068e-11,
-200000,3.9604e-11,
-300000,4.0415e-11,
-400000,4.0076e-11,
-500000,4.111e-11,
-600000,4.1299e-11,
-700000,4.1695e-11,
-800000,4.1856e-11,
-900000,4.292e-11,
-1000000,4.3437e-11,
-1100000,4.417e-11,
-1200000,4.5222e-11,
-1300000,4.4524e-11,
-1400000,4.5043e-11,
-1500000,4.5539e-11,
-1600000,4.5733e-11,
-1700000,4.6326e-11,
-1800000,4.4762e-11,
-1900000,4.574e-11,
-2000000,4.5625e-11,
-2100000,4.4994e-11,
-2200000,4.507e-11,
-2300000,4.4196e-11,
-2400000,4.3119e-11,
-2500000,4.3436e-11,
-2600000,4.3832e-11,
-2700000,4.2135e-11,
-2800000,4.1332e-11,
-2900000,4.0981e-11,
-3000000,4.0402e-11,
-3100000,4.1065e-11,
-3200000,3.9837e-11,
-3300000,3.9152e-11,
-3400000,3.7959e-11,
-3500000,3.7389e-11,
-3600000,3.7218e-11,
-3700000,3.6742e-11,
-3800000,3.6448e-11,
-3900000,3.5362e-11,
-4000000,3.4597e-11,
-4100000,3.3803e-11,
-4200000,3.3594e-11,
-4300000,3.2359e-11,
-4400000,3.2143e-11,
-4500000,3.2019e-11,
-4600000,3.1145e-11,
-4700000,3.0842e-11,
-4800000,3.0117e-11,
-4900000,3.007e-11,
-5000000,2.9647e-11,
-4950000,3.0603e-11,
-4850000,3.0087e-11,
-4750000,3.0338e-11,
-4650000,3.0558e-11,
-4550000,3.1847e-11,
-4450000,3.2232e-11,
-4350000,3.2123e-11,
-4250000,3.3629e-11,
-4150000,3.4285e-11,
-4050000,3.4676e-11,
-3950000,3.5312e-11,
-3850000,3.5383e-11,
-3750000,3.6164e-11,
-3650000,3.7138e-11,
-3550000,3.7475e-11,
-3450000,3.8827e-11,
-3350000,3.8196e-11,
-3250000,3.9032e-11,
-3150000,4.0073e-11,
-3050000,4.2202e-11,
-2950000,4.0719e-11,
-2850000,4.2079e-11,
-2750000,4.2428e-11,
-2650000,4.2501e-11,
-2550000,4.33e-11,
-2450000,4.3132e-11,
-2350000,4.4301e-11,
-2250000,4.4747e-11,
-2150000,4.4543e-11,
-2050000,4.5358e-11,
-1950000,4.5751e-11,
-1850000,4.6303e-11,
-1750000,4.5295e-11,
-1650000,4.5259e-11,
-1550000,4.5202e-11,
-1450000,4.5168e-11,
-1350000,4.5063e-11,
-1250000,4.4668e-11,
-1150000,4.4481e-11,
-1050000,4.3637e-11,
-950000,4.3329e-11,
-850000,4.3387e-11,
-750000,4.2768e-11,
-650000,4.1627e-11,
-550000,4.1691e-11,
-450000,4.0498e-11,
-350000,4.0687e-11,
-250000,4.0318e-11,
-150000,3.907e-11,
-50000,3.9813e-11,
50000,3.9334e-11,
150000,3.9101e-11,
