General parameters:
Start time: 2023              8             18             13             24        6.15064
Finish time: 2023              8             18             13             30       4.790528
Dwell time (ms): 3000.000000
Source chamber pressure: 2.00e+3
Differential chamber pressure: 7.91e-07
Sample chamber pressure: 3.88e-08
Example position (nm): -3907104.961140,96829.974022,-1000000.000000
Rotation angle (udeg): 59999590.000000
==========
Instrument status: 
0:Data Directory:/icon/data/2023_08_MoS2_5um_hbn_sub/
1:Sample:MoS2
2:Comments:no
3:PinholePlate:#C13
4:z_Zero:4200
5:Operator:djw77/nav31/kw570
==========
zscan inputs: 
z_sep:50000
z_range:200000 -5000000
data_path:/icon/data/2023_08_MoS2_5um_hbn_sub/
example_pos:-3907104.9611      96829.974022          -1000000
N_dwell:200
sampling_period:15
make_plots:1
m1:0.98976
m2:-0.0073571
==========
Detector params:
Sampling period (ms): 15.000000
N dwell: 200.000000
Filament current (A): 1.540000
Filament emission (mA): 1.673406
Solenoid current (A): NaN
Solenoid shim current (A): NaN
Lens params:
0  685
1  300
2  125
3      -0.002
4       -0.01
5       0.012
6         0.8
7         2.1
8         2.8
9  3000
10  1450
11         0.85
12   0
==========
Data:
z(nm),I(A)
200000,6.827e-11,
100000,6.577e-11,
0,6.1212e-11,
-100000,5.8129e-11,
-200000,5.3153e-11,
-300000,5.0638e-11,
-400000,4.8334e-11,
-500000,4.857e-11,
-600000,5.1962e-11,
-700000,6.1285e-11,
-800000,7.9786e-11,
-900000,1.0364e-10,
-1000000,1.193e-10,
-1100000,1.1867e-10,
-1200000,1.0257e-10,
-1300000,8.1727e-11,
-1400000,6.731e-11,
-1500000,6.0817e-11,
-1600000,6.039e-11,
-1700000,6.7047e-11,
-1800000,7.3428e-11,
-1900000,7.6549e-11,
-2000000,7.4839e-11,
-2100000,6.7421e-11,
-2200000,5.7471e-11,
-2300000,4.9992e-11,
-2400000,4.9035e-11,
-2500000,5.1808e-11,
-2600000,5.3756e-11,
-2700000,5.9063e-11,
-2800000,6.4047e-11,
-2900000,6.507e-11,
-3000000,6.147e-11,
-3100000,5.3451e-11,
-3200000,4.7747e-11,
-3300000,4.3008e-11,
-3400000,3.9532e-11,
-3500000,3.788e-11,
-3600000,3.6885e-11,
-3700000,3.5974e-11,
-3800000,3.4534e-11,
-3900000,3.4374e-11,
-4000000,3.2634e-11,
-4100000,3.2075e-11,
-4200000,3.0967e-11,
-4300000,3.0043e-11,
-4400000,2.8875e-11,
-4500000,2.7577e-11,
-4600000,2.8298e-11,
-4700000,2.6817e-11,
-4800000,2.619e-11,
-4900000,2.4896e-11,
-5000000,2.5803e-11,
-4950000,2.5723e-11,
-4850000,2.6109e-11,
-4750000,2.6987e-11,
-4650000,2.7444e-11,
-4550000,2.7725e-11,
-4450000,2.8254e-11,
-4350000,2.9253e-11,
-4250000,3.0731e-11,
-4150000,3.1361e-11,
-4050000,3.2927e-11,
-3950000,3.3568e-11,
-3850000,3.4501e-11,
-3750000,3.5243e-11,
-3650000,3.6765e-11,
-3550000,3.6064e-11,
-3450000,3.8004e-11,
-3350000,4.146e-11,
-3250000,4.4406e-11,
-3150000,4.8725e-11,
-3050000,5.5914e-11,
-2950000,6.1812e-11,
-2850000,6.2369e-11,
-2750000,6.0393e-11,
-2650000,5.5749e-11,
-2550000,5.1054e-11,
-2450000,4.8744e-11,
-2350000,4.8789e-11,
-2250000,5.1575e-11,
-2150000,6.0951e-11,
-2050000,6.9263e-11,
-1950000,7.4576e-11,
-1850000,7.4043e-11,
-1750000,7.0927e-11,
-1650000,6.1992e-11,
-1550000,6.0349e-11,
-1450000,6.2346e-11,
-1350000,7.104e-11,
-1250000,8.9908e-11,
-1150000,1.1414e-10,
-1050000,1.2215e-10,
-950000,1.161e-10,
-850000,9.806e-11,
-750000,7.0426e-11,
-650000,5.7117e-11,
-550000,5.0269e-11,
-450000,4.8196e-11,
-350000,5.0074e-11,
-250000,5.236e-11,
-150000,5.4604e-11,
-50000,5.9675e-11,
50000,6.2118e-11,
150000,6.6152e-11,
