General parameters:
Start time: 2023              8             17             15             30       2.726842
Finish time: 2023              8             17             15             37      46.785166
Dwell time (ms): 3750.000000
Source chamber pressure: 2.00e+3
Differential chamber pressure: 7.89e-07
Sample chamber pressure: 3.83e-08
Example position (nm): -3451000.000000,287000.000000,-1000000.000000
Rotation angle (udeg): 90000135.000000
==========
Instrument status: 
0:Data Directory:/icon/data/2023_08_MoS2_5um_hbn_sub/
1:Sample:MoS2
2:Comments:no
3:PinholePlate:#C13
4:z_Zero:4200
5:Operator:djw77/nav31/kw570
==========
zscan inputs: 
z_sep:50000
z_range:500000 -5000000
data_path:/icon/data/2023_08_MoS2_5um_hbn_sub/
example_pos:-3451000   287000 -1000000
N_dwell:250
sampling_period:15
make_plots:1
m1:0.98976
m2:-0.0073571
==========
Detector params:
Sampling period (ms): 15.000000
N dwell: 250.000000
Filament current (A): 1.540000
Filament emission (mA): 1.656306
Solenoid current (A): NaN
Solenoid shim current (A): NaN
Lens params:
0  685
1  300
2  125
3      -0.002
4       -0.01
5       0.012
6         0.8
7         2.1
8         2.8
9  3000
10  1450
11         0.85
12   0
==========
Data:
z(nm),I(A)
500000,4.2791e-11,
400000,4.2347e-11,
300000,4.4964e-11,
200000,4.7638e-11,
100000,5.0508e-11,
0,5.2859e-11,
-100000,5.4498e-11,
-200000,5.6475e-11,
-300000,5.9766e-11,
-400000,6.3554e-11,
-500000,6.665e-11,
-600000,6.7892e-11,
-700000,7.2393e-11,
-800000,7.3695e-11,
-900000,7.7344e-11,
-1000000,7.8086e-11,
-1100000,7.6109e-11,
-1200000,7.5103e-11,
-1300000,7.0289e-11,
-1400000,6.8784e-11,
-1500000,6.8525e-11,
-1600000,6.6789e-11,
-1700000,6.6479e-11,
-1800000,6.5779e-11,
-1900000,6.3337e-11,
-2000000,6.1905e-11,
-2100000,5.9169e-11,
-2200000,5.8056e-11,
-2300000,5.7588e-11,
-2400000,5.5582e-11,
-2500000,5.3573e-11,
-2600000,5.1991e-11,
-2700000,5.1302e-11,
-2800000,4.9691e-11,
-2900000,4.704e-11,
-3000000,4.5912e-11,
-3100000,4.3474e-11,
-3200000,4.1551e-11,
-3300000,3.9429e-11,
-3400000,3.7848e-11,
-3500000,3.7157e-11,
-3600000,3.6006e-11,
-3700000,3.412e-11,
-3800000,3.297e-11,
-3900000,3.1602e-11,
-4000000,3.0016e-11,
-4100000,2.9051e-11,
-4200000,2.7987e-11,
-4300000,2.6779e-11,
-4400000,2.5369e-11,
-4500000,2.4933e-11,
-4600000,2.4438e-11,
-4700000,2.3875e-11,
-4800000,2.2566e-11,
-4900000,2.219e-11,
-5000000,2.2017e-11,
-4950000,2.2125e-11,
-4850000,2.2472e-11,
-4750000,2.3428e-11,
-4650000,2.3609e-11,
-4550000,2.432e-11,
-4450000,2.5494e-11,
-4350000,2.6223e-11,
-4250000,2.6689e-11,
-4150000,2.8429e-11,
-4050000,2.8702e-11,
-3950000,3.0766e-11,
-3850000,3.2207e-11,
-3750000,3.3375e-11,
-3650000,3.4169e-11,
-3550000,3.5573e-11,
-3450000,3.8572e-11,
-3350000,3.8708e-11,
-3250000,4.1498e-11,
-3150000,4.2185e-11,
-3050000,4.4312e-11,
-2950000,4.7187e-11,
-2850000,4.8456e-11,
-2750000,4.9239e-11,
-2650000,5.1537e-11,
-2550000,5.3531e-11,
-2450000,5.5646e-11,
-2350000,5.5258e-11,
-2250000,5.6866e-11,
-2150000,5.9133e-11,
-2050000,6.0255e-11,
-1950000,6.2948e-11,
-1850000,6.5546e-11,
-1750000,6.6366e-11,
-1650000,6.74e-11,
-1550000,6.9869e-11,
-1450000,7.1586e-11,
-1350000,7.2725e-11,
-1250000,7.4875e-11,
-1150000,7.5792e-11,
-1050000,7.7444e-11,
-950000,7.882e-11,
-850000,7.6438e-11,
-750000,7.3935e-11,
-650000,6.9745e-11,
-550000,6.8081e-11,
-450000,6.7224e-11,
-350000,6.3419e-11,
-250000,5.9469e-11,
-150000,5.6314e-11,
-50000,5.4034e-11,
50000,5.098e-11,
150000,4.9528e-11,
250000,4.741e-11,
350000,4.4238e-11,
450000,4.2257e-11,
