General parameters:
Start time: 2023              8             28              2             27      13.732791
Finish time: 2023              8             28              2             33      10.290082
Dwell time (ms): 3000.000000
Source chamber pressure: 2.00e+3
Differential chamber pressure: 6.35e-07
Sample chamber pressure: 3.62e-08
Example position (nm): -3919727.204326,106804.776092,-1000000.000000
Rotation angle (udeg): 60000170.000000
==========
Instrument status: 
0:Data Directory:/icon/data/2023_08_MoS2_5um_hbn_sub/
1:Sample:MoS2
2:Comments:no
3:PinholePlate:#C13
4:z_Zero:4200
5:Operator:djw77/nav31/kw570
==========
zscan inputs: 
z_sep:50000
z_range:200000 -5000000
data_path:/icon/data/2023_08_MoS2_5um_hbn_sub/
example_pos:-3919727.2043      106804.77609          -1000000
N_dwell:200
sampling_period:15
make_plots:1
m1:0.98976
m2:-0.0073571
==========
Detector params:
Sampling period (ms): 15.000000
N dwell: 200.000000
Filament current (A): 1.540000
Filament emission (mA): 1.898784
Solenoid current (A): NaN
Solenoid shim current (A): NaN
Lens params:
0  685
1  300
2  125
3      -0.002
4       -0.01
5       0.012
6         0.8
7         2.1
8         2.8
9  3000
10  1450
11         0.85
12   0
==========
Data:
z(nm),I(A)
200000,8.7059e-11,
100000,8.6464e-11,
0,8.1557e-11,
-100000,7.7835e-11,
-200000,7.4465e-11,
-300000,6.8551e-11,
-400000,6.5784e-11,
-500000,6.5802e-11,
-600000,7.2275e-11,
-700000,8.8436e-11,
-800000,1.2092e-10,
-900000,1.7556e-10,
-1000000,1.8879e-10,
-1100000,1.7118e-10,
-1200000,1.3926e-10,
-1300000,1.0817e-10,
-1400000,9.3927e-11,
-1500000,8.6584e-11,
-1600000,8.6753e-11,
-1700000,9.4443e-11,
-1800000,1.0105e-10,
-1900000,1.0424e-10,
-2000000,9.9278e-11,
-2100000,9.0791e-11,
-2200000,7.8003e-11,
-2300000,7.0935e-11,
-2400000,6.9555e-11,
-2500000,6.9729e-11,
-2600000,7.3751e-11,
-2700000,7.8469e-11,
-2800000,8.2919e-11,
-2900000,8.1929e-11,
-3000000,7.6324e-11,
-3100000,6.8883e-11,
-3200000,6.3247e-11,
-3300000,5.6881e-11,
-3400000,5.1697e-11,
-3500000,5.0636e-11,
-3600000,4.9211e-11,
-3700000,4.6862e-11,
-3800000,4.4103e-11,
-3900000,4.2929e-11,
-4000000,4.0434e-11,
-4100000,3.9475e-11,
-4200000,3.679e-11,
-4300000,3.4891e-11,
-4400000,3.4451e-11,
-4500000,3.3932e-11,
-4600000,3.1595e-11,
-4700000,3.1966e-11,
-4800000,3.0357e-11,
-4900000,2.9894e-11,
-5000000,2.8818e-11,
-4950000,2.8972e-11,
-4850000,2.927e-11,
-4750000,3.0107e-11,
-4650000,3.2144e-11,
-4550000,3.2124e-11,
-4450000,3.4079e-11,
-4350000,3.5371e-11,
-4250000,3.7244e-11,
-4150000,3.8751e-11,
-4050000,4.076e-11,
-3950000,4.0583e-11,
-3850000,4.2792e-11,
-3750000,4.4163e-11,
-3650000,4.5639e-11,
-3550000,4.7697e-11,
-3450000,5.1019e-11,
-3350000,5.3597e-11,
-3250000,5.9421e-11,
-3150000,6.5922e-11,
-3050000,7.0538e-11,
-2950000,7.623e-11,
-2850000,8.1498e-11,
-2750000,7.9318e-11,
-2650000,7.7144e-11,
-2550000,7.2046e-11,
-2450000,7.0868e-11,
-2350000,7.0318e-11,
-2250000,7.4083e-11,
-2150000,8.3639e-11,
-2050000,9.3057e-11,
-1950000,9.986e-11,
-1850000,1.0161e-10,
-1750000,9.8228e-11,
-1650000,9.1523e-11,
-1550000,8.8722e-11,
-1450000,9.1175e-11,
-1350000,1.0127e-10,
-1250000,1.1173e-10,
-1150000,1.5143e-10,
-1050000,1.6879e-10,
-950000,1.7808e-10,
-850000,1.4954e-10,
-750000,1.033e-10,
-650000,8.1846e-11,
-550000,7.0408e-11,
-450000,6.6882e-11,
-350000,6.7612e-11,
-250000,6.9547e-11,
-150000,7.3031e-11,
-50000,7.7956e-11,
50000,8.2309e-11,
150000,8.4159e-11,
