General parameters:
Start time: 2023              8             21             20             21      19.857894
Finish time: 2023              8             21             20             27      14.289914
Dwell time (ms): 3000.000000
Source chamber pressure: 2.00e+3
Differential chamber pressure: 7.97e-07
Sample chamber pressure: 3.84e-08
Example position (nm): -4001998.647192,7775.243212,-1000000.000000
Rotation angle (udeg): 47500620.000000
==========
Instrument status: 
0:Data Directory:/icon/data/2023_08_MoS2_5um_hbn_sub/
1:Sample:MoS2
2:Comments:no
3:PinholePlate:#C13
4:z_Zero:4200
5:Operator:djw77/nav31/kw570
==========
zscan inputs: 
z_sep:50000
z_range:200000 -5000000
data_path:/icon/data/2023_08_MoS2_5um_hbn_sub/
example_pos:-4001998.6472      7775.2432116          -1000000
N_dwell:200
sampling_period:15
make_plots:0
m1:0.98976
m2:-0.0073571
==========
Detector params:
Sampling period (ms): 15.000000
N dwell: 200.000000
Filament current (A): 1.540000
Filament emission (mA): 1.737018
Solenoid current (A): NaN
Solenoid shim current (A): NaN
Lens params:
0  685
1  300
2  125
3      -0.002
4       -0.01
5       0.012
6         0.8
7         2.1
8         2.8
9  3000
10  1450
11         0.85
12   0
==========
Data:
z(nm),I(A)
200000,4.1941e-11,
100000,4.1461e-11,
0,4.0705e-11,
-100000,4.2349e-11,
-200000,4.1949e-11,
-300000,4.2983e-11,
-400000,4.2438e-11,
-500000,4.2848e-11,
-600000,4.3223e-11,
-700000,4.4463e-11,
-800000,4.4628e-11,
-900000,4.577e-11,
-1000000,4.5474e-11,
-1100000,4.6313e-11,
-1200000,4.6088e-11,
-1300000,4.7728e-11,
-1400000,4.8153e-11,
-1500000,4.8409e-11,
-1600000,4.9466e-11,
-1700000,4.7857e-11,
-1800000,4.8502e-11,
-1900000,4.8327e-11,
-2000000,4.8232e-11,
-2100000,4.8716e-11,
-2200000,4.7814e-11,
-2300000,4.6979e-11,
-2400000,4.6604e-11,
-2500000,4.6531e-11,
-2600000,4.62e-11,
-2700000,4.4904e-11,
-2800000,4.5244e-11,
-2900000,4.361e-11,
-3000000,4.314e-11,
-3100000,4.3383e-11,
-3200000,4.257e-11,
-3300000,4.2147e-11,
-3400000,4.1789e-11,
-3500000,4.1068e-11,
-3600000,3.9701e-11,
-3700000,3.8999e-11,
-3800000,3.8669e-11,
-3900000,3.9133e-11,
-4000000,3.7778e-11,
-4100000,3.5992e-11,
-4200000,3.5559e-11,
-4300000,3.4776e-11,
-4400000,3.3843e-11,
-4500000,3.5256e-11,
-4600000,3.3157e-11,
-4700000,3.3051e-11,
-4800000,3.1773e-11,
-4900000,3.1575e-11,
-5000000,3.0177e-11,
-4950000,3.1446e-11,
-4850000,3.1974e-11,
-4750000,3.2485e-11,
-4650000,3.3106e-11,
-4550000,3.356e-11,
-4450000,3.3874e-11,
-4350000,3.4939e-11,
-4250000,3.6158e-11,
-4150000,3.6552e-11,
-4050000,3.6217e-11,
-3950000,3.7954e-11,
-3850000,3.8147e-11,
-3750000,3.8878e-11,
-3650000,4.0106e-11,
-3550000,4.0576e-11,
-3450000,4.1303e-11,
-3350000,4.1123e-11,
-3250000,4.2431e-11,
-3150000,4.2255e-11,
-3050000,4.4423e-11,
-2950000,4.4208e-11,
-2850000,4.4157e-11,
-2750000,4.4945e-11,
-2650000,4.6e-11,
-2550000,4.6241e-11,
-2450000,4.7945e-11,
-2350000,4.6006e-11,
-2250000,4.768e-11,
-2150000,4.7434e-11,
-2050000,4.812e-11,
-1950000,4.7319e-11,
-1850000,4.8192e-11,
-1750000,4.7827e-11,
-1650000,4.7403e-11,
-1550000,4.7977e-11,
-1450000,4.7875e-11,
-1350000,4.8537e-11,
-1250000,4.6835e-11,
-1150000,4.7447e-11,
-1050000,4.6853e-11,
-950000,4.5856e-11,
-850000,4.6309e-11,
-750000,4.4535e-11,
-650000,4.3414e-11,
-550000,4.3636e-11,
-450000,4.2891e-11,
-350000,4.3142e-11,
-250000,4.1616e-11,
-150000,4.1288e-11,
-50000,4.1162e-11,
50000,4.0759e-11,
150000,4.0836e-11,
