General parameters:
Start time: 2023              8             18             17             56      30.823632
Finish time: 2023              8             18             18              2       31.53151
Dwell time (ms): 3000.000000
Source chamber pressure: 2.00e+3
Differential chamber pressure: 7.95e-07
Sample chamber pressure: 3.88e-08
Example position (nm): -3744079.339250,178963.219312,-1000000.000000
Rotation angle (udeg): 69999605.000000
==========
Instrument status: 
0:Data Directory:/icon/data/2023_08_MoS2_5um_hbn_sub/
1:Sample:MoS2
2:Comments:no
3:PinholePlate:#C13
4:z_Zero:4200
5:Operator:djw77/nav31/kw570
==========
zscan inputs: 
z_sep:50000
z_range:200000 -5000000
data_path:/icon/data/2023_08_MoS2_5um_hbn_sub/
example_pos:-3744079.3392      178963.21931          -1000000
N_dwell:200
sampling_period:15
make_plots:0
m1:0.98976
m2:-0.0073571
==========
Detector params:
Sampling period (ms): 15.000000
N dwell: 200.000000
Filament current (A): 1.540000
Filament emission (mA): 1.658016
Solenoid current (A): NaN
Solenoid shim current (A): NaN
Lens params:
0  685
1  300
2  125
3      -0.002
4       -0.01
5       0.012
6         0.8
7         2.1
8         2.8
9  3000
10  1450
11         0.85
12   0
==========
Data:
z(nm),I(A)
200000,3.9178e-11,
100000,4.0507e-11,
0,3.9203e-11,
-100000,3.7229e-11,
-200000,3.7549e-11,
-300000,3.7538e-11,
-400000,3.8981e-11,
-500000,3.7804e-11,
-600000,3.9741e-11,
-700000,3.9322e-11,
-800000,3.9756e-11,
-900000,3.9438e-11,
-1000000,4.0182e-11,
-1100000,4.3017e-11,
-1200000,4.3924e-11,
-1300000,4.6304e-11,
-1400000,4.3642e-11,
-1500000,4.1935e-11,
-1600000,4.1703e-11,
-1700000,4.2566e-11,
-1800000,4.1654e-11,
-1900000,4.171e-11,
-2000000,4.1477e-11,
-2100000,4.0835e-11,
-2200000,4.079e-11,
-2300000,4.0607e-11,
-2400000,4.075e-11,
-2500000,3.9116e-11,
-2600000,3.8751e-11,
-2700000,3.9623e-11,
-2800000,3.8884e-11,
-2900000,3.9056e-11,
-3000000,3.8178e-11,
-3100000,3.706e-11,
-3200000,3.6309e-11,
-3300000,3.56e-11,
-3400000,3.5003e-11,
-3500000,3.4572e-11,
-3600000,3.4187e-11,
-3700000,3.284e-11,
-3800000,3.335e-11,
-3900000,3.2567e-11,
-4000000,3.1627e-11,
-4100000,3.1167e-11,
-4200000,3.0684e-11,
-4300000,2.9348e-11,
-4400000,2.8569e-11,
-4500000,2.8015e-11,
-4600000,2.7939e-11,
-4700000,2.6639e-11,
-4800000,2.7716e-11,
-4900000,2.6269e-11,
-5000000,2.4946e-11,
-4950000,2.5669e-11,
-4850000,2.6161e-11,
-4750000,2.7185e-11,
-4650000,2.747e-11,
-4550000,2.8163e-11,
-4450000,2.92e-11,
-4350000,2.8693e-11,
-4250000,3.0027e-11,
-4150000,2.9972e-11,
-4050000,3.0707e-11,
-3950000,3.1694e-11,
-3850000,3.2525e-11,
-3750000,3.263e-11,
-3650000,3.3985e-11,
-3550000,3.3673e-11,
-3450000,3.495e-11,
-3350000,3.5001e-11,
-3250000,3.608e-11,
-3150000,3.8044e-11,
-3050000,3.7669e-11,
-2950000,3.9059e-11,
-2850000,3.851e-11,
-2750000,3.9403e-11,
-2650000,3.9048e-11,
-2550000,3.8679e-11,
-2450000,3.9755e-11,
-2350000,4.1547e-11,
-2250000,4.0585e-11,
-2150000,4.1423e-11,
-2050000,4.1376e-11,
-1950000,4.1993e-11,
-1850000,4.2263e-11,
-1750000,4.2428e-11,
-1650000,4.1093e-11,
-1550000,4.1575e-11,
-1450000,4.1157e-11,
-1350000,4.1107e-11,
-1250000,4.2307e-11,
-1150000,4.0788e-11,
-1050000,4.0448e-11,
-950000,3.9024e-11,
-850000,3.9238e-11,
-750000,3.879e-11,
-650000,3.8383e-11,
-550000,3.8132e-11,
-450000,3.7377e-11,
-350000,3.6818e-11,
-250000,3.7289e-11,
-150000,3.6812e-11,
-50000,3.629e-11,
50000,3.8676e-11,
150000,3.9614e-11,
