General parameters:
Start time: 2023              8             29              5              7       2.481788
Finish time: 2023              8             29              5             14       5.579037
Dwell time (ms): 3000.000000
Source chamber pressure: 2.00e+3
Differential chamber pressure: 6.04e-07
Sample chamber pressure: 3.57e-08
Example position (nm): -3156400.000000,317800.000000,-1000000.000000
Rotation angle (udeg): 109999990.000000
==========
Instrument status: 
0:Data Directory:/icon/data/2023_08_MoS2_5um_hbn_sub/
1:Sample:MoS2
2:Comments:no
3:PinholePlate:#C13
4:z_Zero:4200
5:Operator:djw77/nav31/kw570
==========
zscan inputs: 
z_sep:50000
z_range:200000 -6000000
data_path:/icon/data/2023_08_MoS2_5um_hbn_sub/
example_pos:-3156400   317800 -1000000
N_dwell:200
sampling_period:15
make_plots:1
m1:0.98976
m2:-0.0073571
==========
Detector params:
Sampling period (ms): 15.000000
N dwell: 200.000000
Filament current (A): 1.540000
Filament emission (mA): 1.926486
Solenoid current (A): NaN
Solenoid shim current (A): NaN
Lens params:
0  685
1  300
2  125
3      -0.002
4       -0.01
5       0.012
6         0.8
7         2.1
8         2.8
9  3000
10  1450
11         0.85
12   0
==========
Data:
z(nm),I(A)
200000,6.2036e-11,
100000,6.3671e-11,
0,6.3126e-11,
-100000,6.3943e-11,
-200000,6.4229e-11,
-300000,6.4898e-11,
-400000,6.3974e-11,
-500000,6.5875e-11,
-600000,6.5124e-11,
-700000,6.4272e-11,
-800000,6.6196e-11,
-900000,6.7425e-11,
-1000000,6.8333e-11,
-1100000,6.5918e-11,
-1200000,6.7997e-11,
-1300000,6.7541e-11,
-1400000,6.8907e-11,
-1500000,6.8501e-11,
-1600000,6.7653e-11,
-1700000,6.7521e-11,
-1800000,6.7103e-11,
-1900000,6.848e-11,
-2000000,6.7214e-11,
-2100000,6.7015e-11,
-2200000,6.5115e-11,
-2300000,6.38e-11,
-2400000,6.3797e-11,
-2500000,6.376e-11,
-2600000,6.2338e-11,
-2700000,6.2764e-11,
-2800000,6.0876e-11,
-2900000,6.0907e-11,
-3000000,6.0719e-11,
-3100000,5.9401e-11,
-3200000,5.817e-11,
-3300000,5.7721e-11,
-3400000,5.699e-11,
-3500000,5.6297e-11,
-3600000,5.3733e-11,
-3700000,5.3527e-11,
-3800000,5.2847e-11,
-3900000,5.2875e-11,
-4000000,5.1343e-11,
-4100000,5.0297e-11,
-4200000,4.9907e-11,
-4300000,4.7908e-11,
-4400000,4.7893e-11,
-4500000,4.7786e-11,
-4600000,4.5996e-11,
-4700000,4.5526e-11,
-4800000,4.4026e-11,
-4900000,4.371e-11,
-5000000,4.3035e-11,
-5100000,4.2683e-11,
-5200000,4.0585e-11,
-5300000,4.0844e-11,
-5400000,4.0241e-11,
-5500000,3.941e-11,
-5600000,3.8827e-11,
-5700000,3.8736e-11,
-5800000,3.82e-11,
-5900000,3.8047e-11,
-6000000,3.5575e-11,
-5950000,3.679e-11,
-5850000,3.7586e-11,
-5750000,3.7882e-11,
-5650000,3.9051e-11,
-5550000,3.8009e-11,
-5450000,4.0737e-11,
-5350000,4.0984e-11,
-5250000,4.1011e-11,
-5150000,4.1257e-11,
-5050000,4.2234e-11,
-4950000,4.3945e-11,
-4850000,4.3213e-11,
-4750000,4.4261e-11,
-4650000,4.46e-11,
-4550000,4.6576e-11,
-4450000,4.7257e-11,
-4350000,4.8018e-11,
-4250000,4.8469e-11,
-4150000,4.8942e-11,
-4050000,5.0233e-11,
-3950000,5.2033e-11,
-3850000,5.2911e-11,
-3750000,5.4225e-11,
-3650000,5.3861e-11,
-3550000,5.4323e-11,
-3450000,5.5617e-11,
-3350000,5.5424e-11,
-3250000,5.7752e-11,
-3150000,5.9466e-11,
-3050000,5.8826e-11,
-2950000,6.0236e-11,
-2850000,6.1824e-11,
-2750000,6.1357e-11,
-2650000,6.2517e-11,
-2550000,6.4266e-11,
-2450000,6.3467e-11,
-2350000,6.4649e-11,
-2250000,6.6229e-11,
-2150000,6.6562e-11,
-2050000,6.7693e-11,
-1950000,6.8403e-11,
-1850000,6.836e-11,
-1750000,6.8382e-11,
-1650000,6.9634e-11,
-1550000,6.9071e-11,
-1450000,6.8175e-11,
-1350000,6.8335e-11,
-1250000,6.8898e-11,
-1150000,6.8378e-11,
-1050000,6.8531e-11,
-950000,6.6829e-11,
-850000,6.802e-11,
-750000,6.6377e-11,
-650000,6.6468e-11,
-550000,6.6557e-11,
-450000,6.615e-11,
-350000,6.6081e-11,
-250000,6.4893e-11,
-150000,6.3495e-11,
-50000,6.3191e-11,
50000,6.3827e-11,
150000,6.2853e-11,
