General parameters:
Start time: 2023              8             21             20             33      20.133115
Finish time: 2023              8             21             20             39      15.362756
Dwell time (ms): 3000.000000
Source chamber pressure: 2.00e+3
Differential chamber pressure: 7.97e-07
Sample chamber pressure: 3.84e-08
Example position (nm): -3953066.320267,63559.300412,-1000000.000000
Rotation angle (udeg): 52500485.000000
==========
Instrument status: 
0:Data Directory:/icon/data/2023_08_MoS2_5um_hbn_sub/
1:Sample:MoS2
2:Comments:no
3:PinholePlate:#C13
4:z_Zero:4200
5:Operator:djw77/nav31/kw570
==========
zscan inputs: 
z_sep:50000
z_range:200000 -5000000
data_path:/icon/data/2023_08_MoS2_5um_hbn_sub/
example_pos:-3953066.3203      63559.300412          -1000000
N_dwell:200
sampling_period:15
make_plots:0
m1:0.98976
m2:-0.0073571
==========
Detector params:
Sampling period (ms): 15.000000
N dwell: 200.000000
Filament current (A): 1.540000
Filament emission (mA): 1.735992
Solenoid current (A): NaN
Solenoid shim current (A): NaN
Lens params:
0  685
1  300
2  125
3      -0.002
4       -0.01
5       0.012
6         0.8
7         2.1
8         2.8
9  3000
10  1450
11         0.85
12   0
==========
Data:
z(nm),I(A)
200000,4.1321e-11,
100000,4.1793e-11,
0,4.141e-11,
-100000,4.1657e-11,
-200000,4.2641e-11,
-300000,4.2886e-11,
-400000,4.2519e-11,
-500000,4.299e-11,
-600000,4.4537e-11,
-700000,4.4555e-11,
-800000,4.4782e-11,
-900000,4.4866e-11,
-1000000,4.6472e-11,
-1100000,4.631e-11,
-1200000,4.62e-11,
-1300000,4.7552e-11,
-1400000,4.7024e-11,
-1500000,4.7739e-11,
-1600000,4.7926e-11,
-1700000,4.8311e-11,
-1800000,4.8113e-11,
-1900000,4.9305e-11,
-2000000,4.8484e-11,
-2100000,4.8443e-11,
-2200000,4.7394e-11,
-2300000,4.7723e-11,
-2400000,4.7352e-11,
-2500000,4.7314e-11,
-2600000,4.6626e-11,
-2700000,4.626e-11,
-2800000,4.4971e-11,
-2900000,4.5824e-11,
-3000000,4.4728e-11,
-3100000,4.2166e-11,
-3200000,4.1584e-11,
-3300000,4.2346e-11,
-3400000,4.1372e-11,
-3500000,4.0602e-11,
-3600000,3.9776e-11,
-3700000,3.9324e-11,
-3800000,3.8704e-11,
-3900000,3.8001e-11,
-4000000,3.7447e-11,
-4100000,3.7083e-11,
-4200000,3.5844e-11,
-4300000,3.5372e-11,
-4400000,3.3857e-11,
-4500000,3.3301e-11,
-4600000,3.2996e-11,
-4700000,3.2537e-11,
-4800000,3.1738e-11,
-4900000,3.1612e-11,
-5000000,3.1574e-11,
-4950000,3.1378e-11,
-4850000,3.242e-11,
-4750000,3.2309e-11,
-4650000,3.3828e-11,
-4550000,3.4656e-11,
-4450000,3.3683e-11,
-4350000,3.5512e-11,
-4250000,3.5443e-11,
-4150000,3.6254e-11,
-4050000,3.7666e-11,
-3950000,3.7208e-11,
-3850000,3.71e-11,
-3750000,3.8559e-11,
-3650000,3.8835e-11,
-3550000,3.9603e-11,
-3450000,4.1549e-11,
-3350000,4.1424e-11,
-3250000,4.2277e-11,
-3150000,4.3031e-11,
-3050000,4.4134e-11,
-2950000,4.4688e-11,
-2850000,4.4459e-11,
-2750000,4.6862e-11,
-2650000,4.6367e-11,
-2550000,4.5879e-11,
-2450000,4.7102e-11,
-2350000,4.7262e-11,
-2250000,4.7376e-11,
-2150000,4.8352e-11,
-2050000,4.8343e-11,
-1950000,4.8272e-11,
-1850000,4.8243e-11,
-1750000,4.7546e-11,
-1650000,4.796e-11,
-1550000,4.7286e-11,
-1450000,4.755e-11,
-1350000,4.7353e-11,
-1250000,4.7473e-11,
-1150000,4.7617e-11,
-1050000,4.7419e-11,
-950000,4.5683e-11,
-850000,4.5915e-11,
-750000,4.5147e-11,
-650000,4.4948e-11,
-550000,4.4711e-11,
-450000,4.383e-11,
-350000,4.306e-11,
-250000,4.3341e-11,
-150000,4.1444e-11,
-50000,4.1734e-11,
50000,4.1326e-11,
150000,4.1706e-11,
