General parameters:
Start time: 2023              8             28              6              4      23.403864
Finish time: 2023              8             28              6             10      18.925398
Dwell time (ms): 3000.000000
Source chamber pressure: 2.00e+3
Differential chamber pressure: 6.31e-07
Sample chamber pressure: 3.62e-08
Example position (nm): -2569895.223908,-12572.795674,-1000000.000000
Rotation angle (udeg): 150000175.000000
==========
Instrument status: 
0:Data Directory:/icon/data/2023_08_MoS2_5um_hbn_sub/
1:Sample:MoS2
2:Comments:no
3:PinholePlate:#C13
4:z_Zero:4200
5:Operator:djw77/nav31/kw570
==========
zscan inputs: 
z_sep:50000
z_range:200000 -5000000
data_path:/icon/data/2023_08_MoS2_5um_hbn_sub/
example_pos:-2569895.2239     -12572.795674          -1000000
N_dwell:200
sampling_period:15
make_plots:1
m1:0.98976
m2:-0.0073571
==========
Detector params:
Sampling period (ms): 15.000000
N dwell: 200.000000
Filament current (A): 1.540000
Filament emission (mA): 1.901520
Solenoid current (A): NaN
Solenoid shim current (A): NaN
Lens params:
0  685
1  300
2  125
3      -0.002
4       -0.01
5       0.012
6         0.8
7         2.1
8         2.8
9  3000
10  1450
11         0.85
12   0
==========
Data:
z(nm),I(A)
200000,6.8749e-11,
100000,6.5431e-11,
0,6.088e-11,
-100000,6.0053e-11,
-200000,5.7531e-11,
-300000,5.857e-11,
-400000,6.1515e-11,
-500000,7.0955e-11,
-600000,8.3076e-11,
-700000,1.1329e-10,
-800000,1.277e-10,
-900000,1.0901e-10,
-1000000,8.5854e-11,
-1100000,7.1241e-11,
-1200000,6.2347e-11,
-1300000,5.5937e-11,
-1400000,5.4643e-11,
-1500000,5.2254e-11,
-1600000,5.1593e-11,
-1700000,5.1128e-11,
-1800000,5.1532e-11,
-1900000,5.3192e-11,
-2000000,5.8062e-11,
-2100000,6.7943e-11,
-2200000,7.5471e-11,
-2300000,8.1254e-11,
-2400000,8.1152e-11,
-2500000,7.3567e-11,
-2600000,6.3407e-11,
-2700000,5.3811e-11,
-2800000,4.8494e-11,
-2900000,4.7141e-11,
-3000000,4.7433e-11,
-3100000,4.6878e-11,
-3200000,4.6621e-11,
-3300000,4.7558e-11,
-3400000,4.5475e-11,
-3500000,4.3466e-11,
-3600000,4.1003e-11,
-3700000,3.8307e-11,
-3800000,3.7288e-11,
-3900000,3.6891e-11,
-4000000,3.6455e-11,
-4100000,3.5226e-11,
-4200000,3.5279e-11,
-4300000,3.4637e-11,
-4400000,3.3225e-11,
-4500000,3.3578e-11,
-4600000,3.353e-11,
-4700000,3.2301e-11,
-4800000,3.1382e-11,
-4900000,3.1282e-11,
-5000000,3.0814e-11,
-4950000,3.0558e-11,
-4850000,2.9893e-11,
-4750000,3.0987e-11,
-4650000,3.204e-11,
-4550000,3.2e-11,
-4450000,3.3188e-11,
-4350000,3.3641e-11,
-4250000,3.3845e-11,
-4150000,3.5082e-11,
-4050000,3.4831e-11,
-3950000,3.6267e-11,
-3850000,3.7343e-11,
-3750000,3.8445e-11,
-3650000,3.9575e-11,
-3550000,4.2794e-11,
-3450000,4.4108e-11,
-3350000,4.7565e-11,
-3250000,4.8634e-11,
-3150000,4.7603e-11,
-3050000,4.7419e-11,
-2950000,4.6121e-11,
-2850000,4.7627e-11,
-2750000,5.0876e-11,
-2650000,5.7825e-11,
-2550000,6.8657e-11,
-2450000,7.8797e-11,
-2350000,8.5614e-11,
-2250000,8.2918e-11,
-2150000,7.6562e-11,
-2050000,6.375e-11,
-1950000,5.6594e-11,
-1850000,5.3442e-11,
-1750000,5.2835e-11,
-1650000,5.134e-11,
-1550000,5.1375e-11,
-1450000,5.3449e-11,
-1350000,5.5767e-11,
-1250000,5.7221e-11,
-1150000,6.453e-11,
-1050000,7.631e-11,
-950000,9.216e-11,
-850000,1.2128e-10,
-750000,1.2808e-10,
-650000,1.0055e-10,
-550000,7.8948e-11,
-450000,6.5924e-11,
-350000,5.966e-11,
-250000,5.5977e-11,
-150000,5.717e-11,
-50000,6.106e-11,
50000,6.2148e-11,
150000,6.6149e-11,
