General parameters:
Start time: 2023              8             19             15             51      43.186408
Finish time: 2023              8             19             15             57      40.360544
Dwell time (ms): 3000.000000
Source chamber pressure: 2.00e+3
Differential chamber pressure: 7.96e-07
Sample chamber pressure: 3.84e-08
Example position (nm): -3390014.963243,291854.763716,-1000000.000000
Rotation angle (udeg): 95000180.000000
==========
Instrument status: 
0:Data Directory:/icon/data/2023_08_MoS2_5um_hbn_sub/
1:Sample:MoS2
2:Comments:no
3:PinholePlate:#C13
4:z_Zero:4200
5:Operator:djw77/nav31/kw570
==========
zscan inputs: 
z_sep:50000
z_range:200000 -5000000
data_path:/icon/data/2023_08_MoS2_5um_hbn_sub/
example_pos:-3390014.9632      291854.76372          -1000000
N_dwell:200
sampling_period:15
make_plots:0
m1:0.98976
m2:-0.0073571
==========
Detector params:
Sampling period (ms): 15.000000
N dwell: 200.000000
Filament current (A): 1.540000
Filament emission (mA): 1.686744
Solenoid current (A): NaN
Solenoid shim current (A): NaN
Lens params:
0  685
1  300
2  125
3      -0.002
4       -0.01
5       0.012
6         0.8
7         2.1
8         2.8
9  3000
10  1450
11         0.85
12   0
==========
Data:
z(nm),I(A)
200000,5.139e-11,
100000,5.4246e-11,
0,5.4564e-11,
-100000,5.426e-11,
-200000,5.2409e-11,
-300000,5.0926e-11,
-400000,5.0451e-11,
-500000,5.338e-11,
-600000,5.9261e-11,
-700000,7.3691e-11,
-800000,1.0244e-10,
-900000,1.3044e-10,
-1000000,1.3358e-10,
-1100000,1.119e-10,
-1200000,8.2141e-11,
-1300000,6.628e-11,
-1400000,5.6742e-11,
-1500000,5.2434e-11,
-1600000,5.0739e-11,
-1700000,4.7851e-11,
-1800000,4.7566e-11,
-1900000,4.5742e-11,
-2000000,4.6855e-11,
-2100000,4.7664e-11,
-2200000,4.8933e-11,
-2300000,5.4916e-11,
-2400000,6.1299e-11,
-2500000,6.6548e-11,
-2600000,6.5783e-11,
-2700000,6.0863e-11,
-2800000,5.3431e-11,
-2900000,4.5162e-11,
-3000000,4.0548e-11,
-3100000,3.9001e-11,
-3200000,3.7018e-11,
-3300000,3.7184e-11,
-3400000,3.6264e-11,
-3500000,3.5259e-11,
-3600000,3.5658e-11,
-3700000,3.4337e-11,
-3800000,3.4468e-11,
-3900000,3.2861e-11,
-4000000,3.2649e-11,
-4100000,3.114e-11,
-4200000,3.0506e-11,
-4300000,3.0778e-11,
-4400000,3.1092e-11,
-4500000,3.1998e-11,
-4600000,3.044e-11,
-4700000,2.9875e-11,
-4800000,2.8467e-11,
-4900000,2.7256e-11,
-5000000,2.5845e-11,
-4950000,2.6876e-11,
-4850000,2.6817e-11,
-4750000,2.8476e-11,
-4650000,2.958e-11,
-4550000,3.1267e-11,
-4450000,3.0934e-11,
-4350000,3.0822e-11,
-4250000,3.1366e-11,
-4150000,3.1056e-11,
-4050000,3.177e-11,
-3950000,3.2153e-11,
-3850000,3.2702e-11,
-3750000,3.3209e-11,
-3650000,3.4379e-11,
-3550000,3.4273e-11,
-3450000,3.5829e-11,
-3350000,3.6886e-11,
-3250000,3.6853e-11,
-3150000,3.7055e-11,
-3050000,3.9127e-11,
-2950000,4.2003e-11,
-2850000,4.7272e-11,
-2750000,5.6889e-11,
-2650000,6.406e-11,
-2550000,6.6396e-11,
-2450000,6.6736e-11,
-2350000,6.0063e-11,
-2250000,5.3917e-11,
-2150000,4.9145e-11,
-2050000,4.6677e-11,
-1950000,4.702e-11,
-1850000,4.7673e-11,
-1750000,4.8757e-11,
-1650000,4.9024e-11,
-1550000,5.0569e-11,
-1450000,5.4654e-11,
-1350000,6.0529e-11,
-1250000,6.9443e-11,
-1150000,8.9346e-11,
-1050000,1.2353e-10,
-950000,1.3368e-10,
-850000,1.1985e-10,
-750000,8.7711e-11,
-650000,6.6374e-11,
-550000,5.6452e-11,
-450000,5.1213e-11,
-350000,5.1337e-11,
-250000,5.1619e-11,
-150000,5.2499e-11,
-50000,5.546e-11,
50000,5.5958e-11,
150000,5.3534e-11,
