General parameters:
Start time: 2023              8             19             14             57       2.689203
Finish time: 2023              8             19             15              3       1.250788
Dwell time (ms): 3000.000000
Source chamber pressure: 2.00e+3
Differential chamber pressure: 7.97e-07
Sample chamber pressure: 3.84e-08
Example position (nm): -3731783.420867,190131.300459,-1000000.000000
Rotation angle (udeg): 72499910.000000
==========
Instrument status: 
0:Data Directory:/icon/data/2023_08_MoS2_5um_hbn_sub/
1:Sample:MoS2
2:Comments:no
3:PinholePlate:#C13
4:z_Zero:4200
5:Operator:djw77/nav31/kw570
==========
zscan inputs: 
z_sep:50000
z_range:200000 -5000000
data_path:/icon/data/2023_08_MoS2_5um_hbn_sub/
example_pos:-3731783.4209      190131.30046          -1000000
N_dwell:200
sampling_period:15
make_plots:0
m1:0.98976
m2:-0.0073571
==========
Detector params:
Sampling period (ms): 15.000000
N dwell: 200.000000
Filament current (A): 1.540000
Filament emission (mA): 1.682982
Solenoid current (A): NaN
Solenoid shim current (A): NaN
Lens params:
0  685
1  300
2  125
3      -0.002
4       -0.01
5       0.012
6         0.8
7         2.1
8         2.8
9  3000
10  1450
11         0.85
12   0
==========
Data:
z(nm),I(A)
200000,1.005e-10,
100000,9.2363e-11,
0,8.6223e-11,
-100000,7.794e-11,
-200000,6.8327e-11,
-300000,6.0182e-11,
-400000,5.5325e-11,
-500000,5.46e-11,
-600000,5.6086e-11,
-700000,6.8449e-11,
-800000,9.0126e-11,
-900000,1.2129e-10,
-1000000,1.3232e-10,
-1100000,1.2791e-10,
-1200000,9.9845e-11,
-1300000,7.719e-11,
-1400000,6.7225e-11,
-1500000,6.1521e-11,
-1600000,6.2712e-11,
-1700000,6.7356e-11,
-1800000,7.5711e-11,
-1900000,8.0059e-11,
-2000000,7.8426e-11,
-2100000,6.9379e-11,
-2200000,5.9417e-11,
-2300000,5.273e-11,
-2400000,5.1352e-11,
-2500000,5.5444e-11,
-2600000,6.1587e-11,
-2700000,7.1255e-11,
-2800000,7.8887e-11,
-2900000,8.2011e-11,
-3000000,7.9166e-11,
-3100000,6.6982e-11,
-3200000,5.6302e-11,
-3300000,4.8746e-11,
-3400000,4.3673e-11,
-3500000,4.0451e-11,
-3600000,3.9481e-11,
-3700000,3.8634e-11,
-3800000,3.857e-11,
-3900000,3.966e-11,
-4000000,3.7942e-11,
-4100000,3.7534e-11,
-4200000,3.6373e-11,
-4300000,3.4256e-11,
-4400000,3.1261e-11,
-4500000,3.0277e-11,
-4600000,2.8025e-11,
-4700000,2.803e-11,
-4800000,2.6423e-11,
-4900000,2.5843e-11,
-5000000,2.5423e-11,
-4950000,2.4173e-11,
-4850000,2.6123e-11,
-4750000,2.725e-11,
-4650000,2.7364e-11,
-4550000,2.8607e-11,
-4450000,3.0049e-11,
-4350000,3.2177e-11,
-4250000,3.4728e-11,
-4150000,3.7744e-11,
-4050000,3.8906e-11,
-3950000,3.9883e-11,
-3850000,3.892e-11,
-3750000,3.9159e-11,
-3650000,3.9176e-11,
-3550000,3.9087e-11,
-3450000,4.1174e-11,
-3350000,4.4291e-11,
-3250000,5.1366e-11,
-3150000,5.9849e-11,
-3050000,7.1457e-11,
-2950000,7.9439e-11,
-2850000,8.2962e-11,
-2750000,7.6167e-11,
-2650000,6.6563e-11,
-2550000,5.879e-11,
-2450000,5.2561e-11,
-2350000,5.1057e-11,
-2250000,5.4638e-11,
-2150000,6.3229e-11,
-2050000,7.3441e-11,
-1950000,7.9085e-11,
-1850000,7.8494e-11,
-1750000,7.3157e-11,
-1650000,6.4844e-11,
-1550000,6.1908e-11,
-1450000,6.2773e-11,
-1350000,7.1653e-11,
-1250000,8.6921e-11,
-1150000,1.1762e-10,
-1050000,1.3238e-10,
-950000,1.2786e-10,
-850000,1.0742e-10,
-750000,7.9142e-11,
-650000,6.1858e-11,
-550000,5.6062e-11,
-450000,5.3056e-11,
-350000,5.6386e-11,
-250000,6.0806e-11,
-150000,6.9956e-11,
-50000,8.047e-11,
50000,8.7434e-11,
150000,9.5066e-11,
