General parameters:
Start time: 2023              8             29              4             16      59.933291
Finish time: 2023              8             29              4             24       4.154986
Dwell time (ms): 3000.000000
Source chamber pressure: 2.00e+3
Differential chamber pressure: 6.04e-07
Sample chamber pressure: 3.58e-08
Example position (nm): -3428674.502876,322320.720138,-1000000.000000
Rotation angle (udeg): 92500135.000000
==========
Instrument status: 
0:Data Directory:/icon/data/2023_08_MoS2_5um_hbn_sub/
1:Sample:MoS2
2:Comments:no
3:PinholePlate:#C13
4:z_Zero:4200
5:Operator:djw77/nav31/kw570
==========
zscan inputs: 
z_sep:50000
z_range:200000 -6000000
data_path:/icon/data/2023_08_MoS2_5um_hbn_sub/
example_pos:-3428674.5029      322320.72014          -1000000
N_dwell:200
sampling_period:15
make_plots:1
m1:0.98976
m2:-0.0073571
==========
Detector params:
Sampling period (ms): 15.000000
N dwell: 200.000000
Filament current (A): 1.540000
Filament emission (mA): 1.925460
Solenoid current (A): NaN
Solenoid shim current (A): NaN
Lens params:
0  685
1  300
2  125
3      -0.002
4       -0.01
5       0.012
6         0.8
7         2.1
8         2.8
9  3000
10  1450
11         0.85
12   0
==========
Data:
z(nm),I(A)
200000,8.6443e-11,
100000,8.993e-11,
0,9.0187e-11,
-100000,8.4743e-11,
-200000,8.1079e-11,
-300000,7.6754e-11,
-400000,7.4961e-11,
-500000,7.9242e-11,
-600000,8.7968e-11,
-700000,1.1633e-10,
-800000,1.7062e-10,
-900000,2.3307e-10,
-1000000,2.3742e-10,
-1100000,2.0353e-10,
-1200000,1.4775e-10,
-1300000,1.1063e-10,
-1400000,9.0262e-11,
-1500000,8.1861e-11,
-1600000,7.5391e-11,
-1700000,7.3253e-11,
-1800000,6.9954e-11,
-1900000,6.7706e-11,
-2000000,6.6339e-11,
-2100000,6.8347e-11,
-2200000,7.3551e-11,
-2300000,8.4995e-11,
-2400000,9.7708e-11,
-2500000,1.0714e-10,
-2600000,1.1036e-10,
-2700000,1.0173e-10,
-2800000,8.7406e-11,
-2900000,6.9127e-11,
-3000000,5.9742e-11,
-3100000,5.5895e-11,
-3200000,5.3206e-11,
-3300000,5.1384e-11,
-3400000,5.2197e-11,
-3500000,5.1695e-11,
-3600000,5.0877e-11,
-3700000,4.9745e-11,
-3800000,4.8582e-11,
-3900000,4.699e-11,
-4000000,4.5196e-11,
-4100000,4.4722e-11,
-4200000,4.4865e-11,
-4300000,4.4979e-11,
-4400000,4.3578e-11,
-4500000,4.2886e-11,
-4600000,4.2559e-11,
-4700000,4.0581e-11,
-4800000,4.0506e-11,
-4900000,3.805e-11,
-5000000,3.6244e-11,
-5100000,3.5697e-11,
-5200000,3.5167e-11,
-5300000,3.4022e-11,
-5400000,3.3358e-11,
-5500000,3.3131e-11,
-5600000,3.2778e-11,
-5700000,3.2971e-11,
-5800000,3.079e-11,
-5900000,3.1259e-11,
-6000000,3.088e-11,
-5950000,3.0571e-11,
-5850000,3.1314e-11,
-5750000,3.1528e-11,
-5650000,3.298e-11,
-5550000,3.2854e-11,
-5450000,3.2453e-11,
-5350000,3.298e-11,
-5250000,3.3542e-11,
-5150000,3.4546e-11,
-5050000,3.6257e-11,
-4950000,3.7785e-11,
-4850000,3.9785e-11,
-4750000,4.0337e-11,
-4650000,4.1601e-11,
-4550000,4.3323e-11,
-4450000,4.2804e-11,
-4350000,4.392e-11,
-4250000,4.3961e-11,
-4150000,4.3869e-11,
-4050000,4.534e-11,
-3950000,4.6028e-11,
-3850000,4.7329e-11,
-3750000,4.9263e-11,
-3650000,5.1202e-11,
-3550000,5.1209e-11,
-3450000,5.3365e-11,
-3350000,5.2154e-11,
-3250000,5.2918e-11,
-3150000,5.451e-11,
-3050000,5.6798e-11,
-2950000,6.3384e-11,
-2850000,7.7183e-11,
-2750000,9.2871e-11,
-2650000,1.053e-10,
-2550000,1.1014e-10,
-2450000,1.0402e-10,
-2350000,9.3221e-11,
-2250000,7.9698e-11,
-2150000,7.2171e-11,
-2050000,6.9205e-11,
-1950000,6.7442e-11,
-1850000,7.0209e-11,
-1750000,7.1596e-11,
-1650000,7.3934e-11,
-1550000,7.9309e-11,
-1450000,8.5941e-11,
-1350000,9.6579e-11,
-1250000,1.1757e-10,
-1150000,1.6363e-10,
-1050000,2.1454e-10,
-950000,2.366e-10,
-850000,2.0975e-10,
-750000,1.4116e-10,
-650000,1.0063e-10,
-550000,8.4095e-11,
-450000,7.7675e-11,
-350000,7.455e-11,
-250000,8.003e-11,
-150000,8.2759e-11,
-50000,8.6855e-11,
50000,8.905e-11,
150000,9.0898e-11,
