General parameters:
Start time: 2023              8             29              3             48      22.822314
Finish time: 2023              8             29              3             55      27.453829
Dwell time (ms): 3000.000000
Source chamber pressure: 2.00e+3
Differential chamber pressure: 6.05e-07
Sample chamber pressure: 3.62e-08
Example position (nm): -3591966.215338,284807.700515,-1000000.000000
Rotation angle (udeg): 82499900.000000
==========
Instrument status: 
0:Data Directory:/icon/data/2023_08_MoS2_5um_hbn_sub/
1:Sample:MoS2
2:Comments:no
3:PinholePlate:#C13
4:z_Zero:4200
5:Operator:djw77/nav31/kw570
==========
zscan inputs: 
z_sep:50000
z_range:200000 -6000000
data_path:/icon/data/2023_08_MoS2_5um_hbn_sub/
example_pos:-3591966.2153      284807.70051          -1000000
N_dwell:200
sampling_period:15
make_plots:1
m1:0.98976
m2:-0.0073571
==========
Detector params:
Sampling period (ms): 15.000000
N dwell: 200.000000
Filament current (A): 1.540000
Filament emission (mA): 1.923066
Solenoid current (A): NaN
Solenoid shim current (A): NaN
Lens params:
0  685
1  300
2  125
3      -0.002
4       -0.01
5       0.012
6         0.8
7         2.1
8         2.8
9  3000
10  1450
11         0.85
12   0
==========
Data:
z(nm),I(A)
200000,1.6724e-10,
100000,1.5186e-10,
0,1.3355e-10,
-100000,1.1974e-10,
-200000,1.0283e-10,
-300000,8.8922e-11,
-400000,8.0464e-11,
-500000,7.9894e-11,
-600000,8.8915e-11,
-700000,1.181e-10,
-800000,1.6954e-10,
-900000,2.3044e-10,
-1000000,2.5011e-10,
-1100000,2.2651e-10,
-1200000,1.7519e-10,
-1300000,1.2614e-10,
-1400000,9.8367e-11,
-1500000,8.6607e-11,
-1600000,8.0236e-11,
-1700000,7.8638e-11,
-1800000,7.9511e-11,
-1900000,7.8923e-11,
-2000000,7.5927e-11,
-2100000,7.4737e-11,
-2200000,7.3033e-11,
-2300000,7.325e-11,
-2400000,7.5361e-11,
-2500000,7.5667e-11,
-2600000,7.3241e-11,
-2700000,6.9841e-11,
-2800000,6.6359e-11,
-2900000,6.4162e-11,
-3000000,6.1723e-11,
-3100000,6.1963e-11,
-3200000,6.4093e-11,
-3300000,6.7921e-11,
-3400000,6.982e-11,
-3500000,7.1637e-11,
-3600000,6.9577e-11,
-3700000,6.5567e-11,
-3800000,5.967e-11,
-3900000,5.352e-11,
-4000000,4.8636e-11,
-4100000,4.6565e-11,
-4200000,4.3476e-11,
-4300000,4.2291e-11,
-4400000,4.1486e-11,
-4500000,4.119e-11,
-4600000,4.1393e-11,
-4700000,4.0987e-11,
-4800000,4.119e-11,
-4900000,4.0733e-11,
-5000000,3.9797e-11,
-5100000,3.8757e-11,
-5200000,3.7933e-11,
-5300000,3.5935e-11,
-5400000,3.4569e-11,
-5500000,3.5908e-11,
-5600000,3.4011e-11,
-5700000,3.376e-11,
-5800000,3.1598e-11,
-5900000,3.1285e-11,
-6000000,3.0228e-11,
-5950000,3.0655e-11,
-5850000,3.103e-11,
-5750000,3.1377e-11,
-5650000,3.3405e-11,
-5550000,3.3905e-11,
-5450000,3.4336e-11,
-5350000,3.4549e-11,
-5250000,3.7806e-11,
-5150000,3.932e-11,
-5050000,3.919e-11,
-4950000,4.0904e-11,
-4850000,4.0495e-11,
-4750000,4.1336e-11,
-4650000,4.1506e-11,
-4550000,4.2018e-11,
-4450000,4.0899e-11,
-4350000,4.123e-11,
-4250000,4.3096e-11,
-4150000,4.3818e-11,
-4050000,4.5746e-11,
-3950000,5.1199e-11,
-3850000,5.7314e-11,
-3750000,6.3379e-11,
-3650000,6.7804e-11,
-3550000,7.1324e-11,
-3450000,7.194e-11,
-3350000,6.889e-11,
-3250000,6.5793e-11,
-3150000,6.2396e-11,
-3050000,6.133e-11,
-2950000,6.2463e-11,
-2850000,6.5195e-11,
-2750000,6.8758e-11,
-2650000,7.2359e-11,
-2550000,7.4967e-11,
-2450000,7.6132e-11,
-2350000,7.4792e-11,
-2250000,7.2166e-11,
-2150000,7.3253e-11,
-2050000,7.5543e-11,
-1950000,7.8764e-11,
-1850000,7.8462e-11,
-1750000,7.8615e-11,
-1650000,7.9834e-11,
-1550000,8.1762e-11,
-1450000,8.9452e-11,
-1350000,1.077e-10,
-1250000,1.377e-10,
-1150000,1.9829e-10,
-1050000,2.4382e-10,
-950000,2.5317e-10,
-850000,2.178e-10,
-750000,1.4819e-10,
-650000,1.0246e-10,
-550000,8.4491e-11,
-450000,7.9012e-11,
-350000,8.3981e-11,
-250000,9.3967e-11,
-150000,1.0926e-10,
-50000,1.2655e-10,
50000,1.4281e-10,
150000,1.593e-10,
