General parameters:
Start time: 2023              8             18             17             32      20.573622
Finish time: 2023              8             18             17             38      17.544528
Dwell time (ms): 3000.000000
Source chamber pressure: 2.00e+3
Differential chamber pressure: 7.94e-07
Sample chamber pressure: 3.88e-08
Example position (nm): -3875820.351449,90643.440543,-1000000.000000
Rotation angle (udeg): 59999580.000000
==========
Instrument status: 
0:Data Directory:/icon/data/2023_08_MoS2_5um_hbn_sub/
1:Sample:MoS2
2:Comments:no
3:PinholePlate:#C13
4:z_Zero:4200
5:Operator:djw77/nav31/kw570
==========
zscan inputs: 
z_sep:50000
z_range:200000 -5000000
data_path:/icon/data/2023_08_MoS2_5um_hbn_sub/
example_pos:-3875820.3514      90643.440543          -1000000
N_dwell:200
sampling_period:15
make_plots:0
m1:0.98976
m2:-0.0073571
==========
Detector params:
Sampling period (ms): 15.000000
N dwell: 200.000000
Filament current (A): 1.540000
Filament emission (mA): 1.659042
Solenoid current (A): NaN
Solenoid shim current (A): NaN
Lens params:
0  685
1  300
2  125
3      -0.002
4       -0.01
5       0.012
6         0.8
7         2.1
8         2.8
9  3000
10  1450
11         0.85
12   0
==========
Data:
z(nm),I(A)
200000,4.6786e-11,
100000,4.7119e-11,
0,4.5627e-11,
-100000,4.2688e-11,
-200000,4.5496e-11,
-300000,4.7021e-11,
-400000,4.5662e-11,
-500000,4.753e-11,
-600000,4.7879e-11,
-700000,4.8025e-11,
-800000,4.8773e-11,
-900000,4.7448e-11,
-1000000,5.1943e-11,
-1100000,5.6627e-11,
-1200000,5.9342e-11,
-1300000,6.0835e-11,
-1400000,5.811e-11,
-1500000,5.362e-11,
-1600000,5.4525e-11,
-1700000,5.3734e-11,
-1800000,5.2799e-11,
-1900000,5.1672e-11,
-2000000,5.0306e-11,
-2100000,4.9856e-11,
-2200000,4.8654e-11,
-2300000,4.651e-11,
-2400000,4.8296e-11,
-2500000,4.7838e-11,
-2600000,4.5569e-11,
-2700000,4.5648e-11,
-2800000,4.486e-11,
-2900000,4.5769e-11,
-3000000,4.5502e-11,
-3100000,4.2581e-11,
-3200000,4.1591e-11,
-3300000,3.9398e-11,
-3400000,3.7883e-11,
-3500000,3.6778e-11,
-3600000,3.7148e-11,
-3700000,3.5565e-11,
-3800000,3.5056e-11,
-3900000,3.3567e-11,
-4000000,3.137e-11,
-4100000,3.079e-11,
-4200000,3.0283e-11,
-4300000,2.9016e-11,
-4400000,2.8537e-11,
-4500000,2.8199e-11,
-4600000,2.7043e-11,
-4700000,2.66e-11,
-4800000,2.6155e-11,
-4900000,2.6332e-11,
-5000000,2.609e-11,
-4950000,2.5138e-11,
-4850000,2.5781e-11,
-4750000,2.63e-11,
-4650000,2.6293e-11,
-4550000,2.7711e-11,
-4450000,2.8189e-11,
-4350000,2.9237e-11,
-4250000,2.954e-11,
-4150000,3.0681e-11,
-4050000,3.0835e-11,
-3950000,3.2372e-11,
-3850000,3.3795e-11,
-3750000,3.5213e-11,
-3650000,3.5677e-11,
-3550000,3.7125e-11,
-3450000,3.8661e-11,
-3350000,3.7931e-11,
-3250000,4.0411e-11,
-3150000,4.2894e-11,
-3050000,4.4427e-11,
-2950000,4.6641e-11,
-2850000,4.5546e-11,
-2750000,4.5221e-11,
-2650000,4.5882e-11,
-2550000,4.6084e-11,
-2450000,4.7944e-11,
-2350000,4.7636e-11,
-2250000,4.807e-11,
-2150000,4.7924e-11,
-2050000,5.0152e-11,
-1950000,5.1195e-11,
-1850000,5.2009e-11,
-1750000,5.3382e-11,
-1650000,5.4881e-11,
-1550000,5.2593e-11,
-1450000,5.4459e-11,
-1350000,5.4971e-11,
-1250000,5.7034e-11,
-1150000,5.5099e-11,
-1050000,5.2807e-11,
-950000,4.8274e-11,
-850000,4.5862e-11,
-750000,4.9211e-11,
-650000,4.926e-11,
-550000,4.8174e-11,
-450000,4.6624e-11,
-350000,4.5622e-11,
-250000,4.6452e-11,
-150000,4.5065e-11,
-50000,4.3088e-11,
50000,4.6311e-11,
150000,4.6947e-11,
