General parameters:
Start time: 2023              8             21             17              0      47.904444
Finish time: 2023              8             21             17              6      42.235008
Dwell time (ms): 3000.000000
Source chamber pressure: 2.00e+3
Differential chamber pressure: 7.96e-07
Sample chamber pressure: 3.83e-08
Example position (nm): -2904824.940681,190415.803840,-1000000.000000
Rotation angle (udeg): 129999955.000000
==========
Instrument status: 
0:Data Directory:/icon/data/2023_08_MoS2_5um_hbn_sub/
1:Sample:MoS2
2:Comments:no
3:PinholePlate:#C13
4:z_Zero:4200
5:Operator:djw77/nav31/kw570
==========
zscan inputs: 
z_sep:50000
z_range:200000 -5000000
data_path:/icon/data/2023_08_MoS2_5um_hbn_sub/
example_pos:-2904824.9407      190415.80384          -1000000
N_dwell:200
sampling_period:15
make_plots:0
m1:0.98976
m2:-0.0073571
==========
Detector params:
Sampling period (ms): 15.000000
N dwell: 200.000000
Filament current (A): 1.540000
Filament emission (mA): 1.739412
Solenoid current (A): NaN
Solenoid shim current (A): NaN
Lens params:
0  685
1  300
2  125
3      -0.002
4       -0.01
5       0.012
6         0.8
7         2.1
8         2.8
9  3000
10  1450
11         0.85
12   0
==========
Data:
z(nm),I(A)
200000,4.5838e-11,
100000,4.662e-11,
0,4.7067e-11,
-100000,4.6895e-11,
-200000,4.6652e-11,
-300000,4.6786e-11,
-400000,4.6523e-11,
-500000,4.7958e-11,
-600000,4.7179e-11,
-700000,4.7585e-11,
-800000,4.8213e-11,
-900000,4.9298e-11,
-1000000,4.8529e-11,
-1100000,4.7816e-11,
-1200000,4.9601e-11,
-1300000,4.8658e-11,
-1400000,4.8847e-11,
-1500000,4.9076e-11,
-1600000,4.9201e-11,
-1700000,4.9244e-11,
-1800000,4.8533e-11,
-1900000,4.8858e-11,
-2000000,4.96e-11,
-2100000,4.8078e-11,
-2200000,4.8243e-11,
-2300000,4.8426e-11,
-2400000,4.7277e-11,
-2500000,4.742e-11,
-2600000,4.5346e-11,
-2700000,4.5479e-11,
-2800000,4.4787e-11,
-2900000,4.4664e-11,
-3000000,4.418e-11,
-3100000,4.3132e-11,
-3200000,4.3384e-11,
-3300000,4.296e-11,
-3400000,4.1455e-11,
-3500000,4.0764e-11,
-3600000,3.9296e-11,
-3700000,3.8837e-11,
-3800000,3.8154e-11,
-3900000,3.7766e-11,
-4000000,3.6775e-11,
-4100000,3.5917e-11,
-4200000,3.5419e-11,
-4300000,3.5021e-11,
-4400000,3.4705e-11,
-4500000,3.3159e-11,
-4600000,3.3306e-11,
-4700000,3.2833e-11,
-4800000,3.1953e-11,
-4900000,3.1284e-11,
-5000000,3.11e-11,
-4950000,3.0915e-11,
-4850000,3.0797e-11,
-4750000,3.2373e-11,
-4650000,3.2967e-11,
-4550000,3.3114e-11,
-4450000,3.385e-11,
-4350000,3.5455e-11,
-4250000,3.498e-11,
-4150000,3.6881e-11,
-4050000,3.5839e-11,
-3950000,3.6941e-11,
-3850000,3.6955e-11,
-3750000,3.9073e-11,
-3650000,3.9115e-11,
-3550000,3.9638e-11,
-3450000,4.1417e-11,
-3350000,4.0905e-11,
-3250000,4.2088e-11,
-3150000,4.2499e-11,
-3050000,4.3938e-11,
-2950000,4.4528e-11,
-2850000,4.6197e-11,
-2750000,4.5533e-11,
-2650000,4.6328e-11,
-2550000,4.7121e-11,
-2450000,4.7056e-11,
-2350000,4.7399e-11,
-2250000,4.786e-11,
-2150000,4.7961e-11,
-2050000,4.9106e-11,
-1950000,4.8833e-11,
-1850000,4.9964e-11,
-1750000,4.9365e-11,
-1650000,4.8874e-11,
-1550000,4.9113e-11,
-1450000,4.966e-11,
-1350000,4.9488e-11,
-1250000,4.8136e-11,
-1150000,4.9147e-11,
-1050000,4.8685e-11,
-950000,4.8601e-11,
-850000,4.8511e-11,
-750000,4.8177e-11,
-650000,4.7376e-11,
-550000,4.8667e-11,
-450000,4.7941e-11,
-350000,4.8246e-11,
-250000,4.755e-11,
-150000,4.6867e-11,
-50000,4.6797e-11,
50000,4.5829e-11,
150000,4.6489e-11,
