General parameters:
Start time: 2023              8             28              4             45      55.117839
Finish time: 2023              8             28              4             51      51.959171
Dwell time (ms): 3000.000000
Source chamber pressure: 2.00e+3
Differential chamber pressure: 6.32e-07
Sample chamber pressure: 3.62e-08
Example position (nm): -3015501.951720,285780.219844,-1000000.000000
Rotation angle (udeg): 117500115.000000
==========
Instrument status: 
0:Data Directory:/icon/data/2023_08_MoS2_5um_hbn_sub/
1:Sample:MoS2
2:Comments:no
3:PinholePlate:#C13
4:z_Zero:4200
5:Operator:djw77/nav31/kw570
==========
zscan inputs: 
z_sep:50000
z_range:200000 -5000000
data_path:/icon/data/2023_08_MoS2_5um_hbn_sub/
example_pos:-3015501.9517      285780.21984          -1000000
N_dwell:200
sampling_period:15
make_plots:1
m1:0.98976
m2:-0.0073571
==========
Detector params:
Sampling period (ms): 15.000000
N dwell: 200.000000
Filament current (A): 1.540000
Filament emission (mA): 1.901520
Solenoid current (A): NaN
Solenoid shim current (A): NaN
Lens params:
0  685
1  300
2  125
3      -0.002
4       -0.01
5       0.012
6         0.8
7         2.1
8         2.8
9  3000
10  1450
11         0.85
12   0
==========
Data:
z(nm),I(A)
200000,5.6061e-11,
100000,5.6825e-11,
0,5.8633e-11,
-100000,5.8562e-11,
-200000,5.6719e-11,
-300000,5.8964e-11,
-400000,5.9086e-11,
-500000,6.7082e-11,
-600000,7.9016e-11,
-700000,1.0416e-10,
-800000,1.4194e-10,
-900000,1.6341e-10,
-1000000,1.4875e-10,
-1100000,1.0824e-10,
-1200000,8.6328e-11,
-1300000,7.4088e-11,
-1400000,7.1293e-11,
-1500000,8.0815e-11,
-1600000,1.0403e-10,
-1700000,1.2466e-10,
-1800000,1.2745e-10,
-1900000,1.1952e-10,
-2000000,9.8496e-11,
-2100000,7.4067e-11,
-2200000,6.5081e-11,
-2300000,6.7042e-11,
-2400000,7.7767e-11,
-2500000,1.0122e-10,
-2600000,1.254e-10,
-2700000,1.3884e-10,
-2800000,1.3219e-10,
-2900000,1.0902e-10,
-3000000,8.4873e-11,
-3100000,6.6795e-11,
-3200000,5.886e-11,
-3300000,5.3688e-11,
-3400000,5.0277e-11,
-3500000,5.0901e-11,
-3600000,5.0854e-11,
-3700000,5.0338e-11,
-3800000,4.809e-11,
-3900000,4.6539e-11,
-4000000,4.2833e-11,
-4100000,4.0909e-11,
-4200000,3.8539e-11,
-4300000,3.6914e-11,
-4400000,3.5869e-11,
-4500000,3.4719e-11,
-4600000,3.3239e-11,
-4700000,3.3304e-11,
-4800000,3.1402e-11,
-4900000,3.056e-11,
-5000000,3.0507e-11,
-4950000,2.97e-11,
-4850000,3.2081e-11,
-4750000,3.1136e-11,
-4650000,3.3434e-11,
-4550000,3.3554e-11,
-4450000,3.4421e-11,
-4350000,3.5167e-11,
-4250000,3.7011e-11,
-4150000,3.9031e-11,
-4050000,4.2311e-11,
-3950000,4.4215e-11,
-3850000,4.5934e-11,
-3750000,4.9467e-11,
-3650000,4.9101e-11,
-3550000,4.9691e-11,
-3450000,5.1522e-11,
-3350000,5.2006e-11,
-3250000,5.4906e-11,
-3150000,6.1683e-11,
-3050000,7.3762e-11,
-2950000,9.4827e-11,
-2850000,1.216e-10,
-2750000,1.389e-10,
-2650000,1.3612e-10,
-2550000,1.1825e-10,
-2450000,9.2524e-11,
-2350000,7.3812e-11,
-2250000,6.5628e-11,
-2150000,6.6312e-11,
-2050000,8.301e-11,
-1950000,1.0942e-10,
-1850000,1.2581e-10,
-1750000,1.2938e-10,
-1650000,1.2e-10,
-1550000,9.3868e-11,
-1450000,7.5845e-11,
-1350000,7.2282e-11,
-1250000,7.589e-11,
-1150000,9.2076e-11,
-1050000,1.2238e-10,
-950000,1.5865e-10,
-850000,1.6154e-10,
-750000,1.2619e-10,
-650000,9.287e-11,
-550000,7.4519e-11,
-450000,6.3452e-11,
-350000,5.9491e-11,
-250000,5.8196e-11,
-150000,5.777e-11,
-50000,5.7752e-11,
50000,5.8167e-11,
150000,5.8386e-11,
