General parameters:
Start time: 2023              8             18             19             21       5.300623
Finish time: 2023              8             18             19             27       6.556283
Dwell time (ms): 3000.000000
Source chamber pressure: 2.00e+3
Differential chamber pressure: 7.94e-07
Sample chamber pressure: 3.84e-08
Example position (nm): -3207532.227064,286546.812922,-1000000.000000
Rotation angle (udeg): 104999835.000000
==========
Instrument status: 
0:Data Directory:/icon/data/2023_08_MoS2_5um_hbn_sub/
1:Sample:MoS2
2:Comments:no
3:PinholePlate:#C13
4:z_Zero:4200
5:Operator:djw77/nav31/kw570
==========
zscan inputs: 
z_sep:50000
z_range:200000 -5000000
data_path:/icon/data/2023_08_MoS2_5um_hbn_sub/
example_pos:-3207532.2271      286546.81292          -1000000
N_dwell:200
sampling_period:15
make_plots:0
m1:0.98976
m2:-0.0073571
==========
Detector params:
Sampling period (ms): 15.000000
N dwell: 200.000000
Filament current (A): 1.540000
Filament emission (mA): 1.668618
Solenoid current (A): NaN
Solenoid shim current (A): NaN
Lens params:
0  685
1  300
2  125
3      -0.002
4       -0.01
5       0.012
6         0.8
7         2.1
8         2.8
9  3000
10  1450
11         0.85
12   0
==========
Data:
z(nm),I(A)
200000,3.8318e-11,
100000,3.9898e-11,
0,3.9449e-11,
-100000,3.9863e-11,
-200000,4.0103e-11,
-300000,3.9843e-11,
-400000,4.1081e-11,
-500000,4.1143e-11,
-600000,4.1234e-11,
-700000,4.2389e-11,
-800000,4.1486e-11,
-900000,4.245e-11,
-1000000,4.1473e-11,
-1100000,4.1861e-11,
-1200000,4.2231e-11,
-1300000,4.2281e-11,
-1400000,4.2622e-11,
-1500000,4.2196e-11,
-1600000,4.2753e-11,
-1700000,4.2599e-11,
-1800000,4.3203e-11,
-1900000,4.2234e-11,
-2000000,4.2037e-11,
-2100000,4.1305e-11,
-2200000,4.1741e-11,
-2300000,4.143e-11,
-2400000,4.0556e-11,
-2500000,3.9957e-11,
-2600000,3.9484e-11,
-2700000,3.9734e-11,
-2800000,3.9245e-11,
-2900000,3.8493e-11,
-3000000,3.7769e-11,
-3100000,3.7012e-11,
-3200000,3.6676e-11,
-3300000,3.647e-11,
-3400000,3.506e-11,
-3500000,3.4617e-11,
-3600000,3.4587e-11,
-3700000,3.315e-11,
-3800000,3.3671e-11,
-3900000,3.2166e-11,
-4000000,3.1903e-11,
-4100000,3.1667e-11,
-4200000,2.9989e-11,
-4300000,3.0896e-11,
-4400000,3.0025e-11,
-4500000,2.9102e-11,
-4600000,2.8361e-11,
-4700000,2.8557e-11,
-4800000,2.7698e-11,
-4900000,2.6648e-11,
-5000000,2.6496e-11,
-4950000,2.6737e-11,
-4850000,2.7102e-11,
-4750000,2.7789e-11,
-4650000,2.7848e-11,
-4550000,2.8183e-11,
-4450000,2.9934e-11,
-4350000,2.9064e-11,
-4250000,3.0538e-11,
-4150000,3.0287e-11,
-4050000,3.1706e-11,
-3950000,3.258e-11,
-3850000,3.3309e-11,
-3750000,3.2959e-11,
-3650000,3.4985e-11,
-3550000,3.4954e-11,
-3450000,3.4866e-11,
-3350000,3.6523e-11,
-3250000,3.6482e-11,
-3150000,3.7221e-11,
-3050000,3.7834e-11,
-2950000,3.8408e-11,
-2850000,3.9023e-11,
-2750000,3.9771e-11,
-2650000,3.9534e-11,
-2550000,3.9627e-11,
-2450000,3.987e-11,
-2350000,4.1892e-11,
-2250000,4.1144e-11,
-2150000,4.1552e-11,
-2050000,4.2195e-11,
-1950000,4.256e-11,
-1850000,4.2028e-11,
-1750000,4.3098e-11,
-1650000,4.2693e-11,
-1550000,4.3323e-11,
-1450000,4.1314e-11,
-1350000,4.2373e-11,
-1250000,4.1714e-11,
-1150000,4.2323e-11,
-1050000,4.232e-11,
-950000,4.0662e-11,
-850000,4.2185e-11,
-750000,4.162e-11,
-650000,4.1279e-11,
-550000,4.0551e-11,
-450000,3.9884e-11,
-350000,4.0299e-11,
-250000,4.0611e-11,
-150000,4.043e-11,
-50000,3.9625e-11,
50000,4.0092e-11,
150000,3.8883e-11,
