General parameters:
Start time: 2023              8             29              6             25      44.763588
Finish time: 2023              8             29              6             32       49.27459
Dwell time (ms): 3000.000000
Source chamber pressure: 2.00e+3
Differential chamber pressure: 6.02e-07
Sample chamber pressure: 3.58e-08
Example position (nm): -2761895.886150,138197.118554,-1000000.000000
Rotation angle (udeg): 137499745.000000
==========
Instrument status: 
0:Data Directory:/icon/data/2023_08_MoS2_5um_hbn_sub/
1:Sample:MoS2
2:Comments:no
3:PinholePlate:#C13
4:z_Zero:4200
5:Operator:djw77/nav31/kw570
==========
zscan inputs: 
z_sep:50000
z_range:200000 -6000000
data_path:/icon/data/2023_08_MoS2_5um_hbn_sub/
example_pos:-2761895.8861      138197.11855          -1000000
N_dwell:200
sampling_period:15
make_plots:1
m1:0.98976
m2:-0.0073571
==========
Detector params:
Sampling period (ms): 15.000000
N dwell: 200.000000
Filament current (A): 1.540000
Filament emission (mA): 1.924092
Solenoid current (A): NaN
Solenoid shim current (A): NaN
Lens params:
0  685
1  300
2  125
3      -0.002
4       -0.01
5       0.012
6         0.8
7         2.1
8         2.8
9  3000
10  1450
11         0.85
12   0
==========
Data:
z(nm),I(A)
200000,6.2246e-11,
100000,6.3062e-11,
0,6.2977e-11,
-100000,6.4019e-11,
-200000,6.3882e-11,
-300000,6.3894e-11,
-400000,6.4793e-11,
-500000,6.4658e-11,
-600000,6.5239e-11,
-700000,6.614e-11,
-800000,6.7274e-11,
-900000,6.5745e-11,
-1000000,6.7462e-11,
-1100000,6.4235e-11,
-1200000,6.6629e-11,
-1300000,6.6774e-11,
-1400000,6.7317e-11,
-1500000,6.6947e-11,
-1600000,6.795e-11,
-1700000,6.7684e-11,
-1800000,6.6271e-11,
-1900000,6.786e-11,
-2000000,6.6755e-11,
-2100000,6.6028e-11,
-2200000,6.6991e-11,
-2300000,6.5319e-11,
-2400000,6.4796e-11,
-2500000,6.4332e-11,
-2600000,6.3021e-11,
-2700000,6.1956e-11,
-2800000,6.0767e-11,
-2900000,5.9931e-11,
-3000000,6.0129e-11,
-3100000,5.9585e-11,
-3200000,5.8786e-11,
-3300000,5.83e-11,
-3400000,5.6365e-11,
-3500000,5.5691e-11,
-3600000,5.4217e-11,
-3700000,5.357e-11,
-3800000,5.1743e-11,
-3900000,5.229e-11,
-4000000,5.1699e-11,
-4100000,5.001e-11,
-4200000,4.9529e-11,
-4300000,4.8635e-11,
-4400000,4.733e-11,
-4500000,4.6867e-11,
-4600000,4.6053e-11,
-4700000,4.5527e-11,
-4800000,4.4504e-11,
-4900000,4.4669e-11,
-5000000,4.2946e-11,
-5100000,4.1643e-11,
-5200000,4.1161e-11,
-5300000,4.0902e-11,
-5400000,4.1402e-11,
-5500000,3.9936e-11,
-5600000,3.9523e-11,
-5700000,3.871e-11,
-5800000,3.8997e-11,
-5900000,3.6726e-11,
-6000000,3.7469e-11,
-5950000,3.7958e-11,
-5850000,3.8485e-11,
-5750000,3.8709e-11,
-5650000,3.9046e-11,
-5550000,4.0802e-11,
-5450000,4.0255e-11,
-5350000,4.0603e-11,
-5250000,4.1744e-11,
-5150000,4.2275e-11,
-5050000,4.2512e-11,
-4950000,4.3152e-11,
-4850000,4.3851e-11,
-4750000,4.4749e-11,
-4650000,4.5355e-11,
-4550000,4.6419e-11,
-4450000,4.7601e-11,
-4350000,4.734e-11,
-4250000,4.8324e-11,
-4150000,4.8919e-11,
-4050000,5.0408e-11,
-3950000,5.1198e-11,
-3850000,5.2167e-11,
-3750000,5.3582e-11,
-3650000,5.352e-11,
-3550000,5.5085e-11,
-3450000,5.6412e-11,
-3350000,5.6091e-11,
-3250000,5.7681e-11,
-3150000,5.827e-11,
-3050000,5.9729e-11,
-2950000,6.0495e-11,
-2850000,6.213e-11,
-2750000,6.0918e-11,
-2650000,6.2801e-11,
-2550000,6.2998e-11,
-2450000,6.5088e-11,
-2350000,6.5444e-11,
-2250000,6.5652e-11,
-2150000,6.5747e-11,
-2050000,6.7577e-11,
-1950000,6.627e-11,
-1850000,6.6847e-11,
-1750000,6.6204e-11,
-1650000,6.783e-11,
-1550000,6.7521e-11,
-1450000,6.6923e-11,
-1350000,6.7368e-11,
-1250000,6.8256e-11,
-1150000,6.6662e-11,
-1050000,6.5981e-11,
-950000,6.6787e-11,
-850000,6.6392e-11,
-750000,6.4989e-11,
-650000,6.5255e-11,
-550000,6.5327e-11,
-450000,6.4268e-11,
-350000,6.3539e-11,
-250000,6.3659e-11,
-150000,6.409e-11,
-50000,6.3588e-11,
50000,6.4057e-11,
150000,6.2811e-11,
