General parameters:
Start time: 2023              8             23             13             17      23.393944
Finish time: 2023              8             23             13             23      19.055016
Dwell time (ms): 3000.000000
Source chamber pressure: 2.00e+3
Differential chamber pressure: 7.72e-07
Sample chamber pressure: 3.84e-08
Example position (nm): -3470000.000000,316000.000000,-1000000.000000
Rotation angle (udeg): 90000155.000000
==========
Instrument status: 
0:Data Directory:/icon/data/2023_08_MoS2_5um_hbn_sub/
1:Sample:MoS2
2:Comments:no
3:PinholePlate:#C13
4:z_Zero:4200
5:Operator:djw77/nav31/kw570
==========
zscan inputs: 
z_sep:50000
z_range:200000 -5000000
data_path:/icon/data/2023_08_MoS2_5um_hbn_sub/
example_pos:-3470000   316000 -1000000
N_dwell:200
sampling_period:15
make_plots:1
m1:0.98976
m2:-0.0073571
==========
Detector params:
Sampling period (ms): 15.000000
N dwell: 200.000000
Filament current (A): 1.540000
Filament emission (mA): 1.771560
Solenoid current (A): NaN
Solenoid shim current (A): NaN
Lens params:
0  685
1  300
2  125
3      -0.002
4       -0.01
5       0.012
6         0.8
7         2.1
8         2.8
9  3000
10  1450
11         0.85
12   0
==========
Data:
z(nm),I(A)
200000,6.9966e-11,
100000,7.0087e-11,
0,6.5012e-11,
-100000,5.981e-11,
-200000,5.4816e-11,
-300000,4.9167e-11,
-400000,4.7656e-11,
-500000,4.8935e-11,
-600000,5.5954e-11,
-700000,7.1092e-11,
-800000,1.034e-10,
-900000,1.3578e-10,
-1000000,1.4474e-10,
-1100000,1.252e-10,
-1200000,9.5065e-11,
-1300000,7.1727e-11,
-1400000,5.9262e-11,
-1500000,5.049e-11,
-1600000,4.7628e-11,
-1700000,4.5166e-11,
-1800000,4.4097e-11,
-1900000,4.337e-11,
-2000000,4.324e-11,
-2100000,4.5608e-11,
-2200000,4.7126e-11,
-2300000,5.3467e-11,
-2400000,6.0763e-11,
-2500000,6.3648e-11,
-2600000,6.2891e-11,
-2700000,5.7521e-11,
-2800000,4.8891e-11,
-2900000,4.2107e-11,
-3000000,3.7074e-11,
-3100000,3.61e-11,
-3200000,3.5275e-11,
-3300000,3.6161e-11,
-3400000,3.6816e-11,
-3500000,3.7451e-11,
-3600000,3.6746e-11,
-3700000,3.5572e-11,
-3800000,3.2447e-11,
-3900000,3.0932e-11,
-4000000,2.8689e-11,
-4100000,2.7883e-11,
-4200000,2.6898e-11,
-4300000,2.6205e-11,
-4400000,2.5923e-11,
-4500000,2.4821e-11,
-4600000,2.4311e-11,
-4700000,2.4372e-11,
-4800000,2.305e-11,
-4900000,2.2164e-11,
-5000000,2.2768e-11,
-4950000,2.2085e-11,
-4850000,2.3383e-11,
-4750000,2.3525e-11,
-4650000,2.5159e-11,
-4550000,2.5142e-11,
-4450000,2.5611e-11,
-4350000,2.5723e-11,
-4250000,2.6989e-11,
-4150000,2.7727e-11,
-4050000,2.9045e-11,
-3950000,2.9933e-11,
-3850000,3.2453e-11,
-3750000,3.479e-11,
-3650000,3.6174e-11,
-3550000,3.7409e-11,
-3450000,3.6367e-11,
-3350000,3.6548e-11,
-3250000,3.5007e-11,
-3150000,3.5763e-11,
-3050000,3.5372e-11,
-2950000,3.7855e-11,
-2850000,4.4462e-11,
-2750000,5.3098e-11,
-2650000,6.0116e-11,
-2550000,6.4856e-11,
-2450000,6.1419e-11,
-2350000,5.7816e-11,
-2250000,5.0012e-11,
-2150000,4.5218e-11,
-2050000,4.421e-11,
-1950000,4.2879e-11,
-1850000,4.3016e-11,
-1750000,4.5567e-11,
-1650000,4.598e-11,
-1550000,4.8912e-11,
-1450000,5.3386e-11,
-1350000,6.3376e-11,
-1250000,7.9881e-11,
-1150000,1.0568e-10,
-1050000,1.3605e-10,
-950000,1.4715e-10,
-850000,1.2896e-10,
-750000,8.9635e-11,
-650000,6.4443e-11,
-550000,5.3931e-11,
-450000,4.922e-11,
-350000,4.8679e-11,
-250000,5.1523e-11,
-150000,5.6822e-11,
-50000,6.1045e-11,
50000,6.6137e-11,
150000,6.9489e-11,
