General parameters:
Start time: 2023              8             28              4             51      57.188611
Finish time: 2023              8             28              4             57      53.782845
Dwell time (ms): 3000.000000
Source chamber pressure: 2.00e+3
Differential chamber pressure: 6.32e-07
Sample chamber pressure: 3.62e-08
Example position (nm): -2975927.204326,272304.776092,-1000000.000000
Rotation angle (udeg): 120000010.000000
==========
Instrument status: 
0:Data Directory:/icon/data/2023_08_MoS2_5um_hbn_sub/
1:Sample:MoS2
2:Comments:no
3:PinholePlate:#C13
4:z_Zero:4200
5:Operator:djw77/nav31/kw570
==========
zscan inputs: 
z_sep:50000
z_range:200000 -5000000
data_path:/icon/data/2023_08_MoS2_5um_hbn_sub/
example_pos:-2975927.2043      272304.77609          -1000000
N_dwell:200
sampling_period:15
make_plots:1
m1:0.98976
m2:-0.0073571
==========
Detector params:
Sampling period (ms): 15.000000
N dwell: 200.000000
Filament current (A): 1.540000
Filament emission (mA): 1.902204
Solenoid current (A): NaN
Solenoid shim current (A): NaN
Lens params:
0  685
1  300
2  125
3      -0.002
4       -0.01
5       0.012
6         0.8
7         2.1
8         2.8
9  3000
10  1450
11         0.85
12   0
==========
Data:
z(nm),I(A)
200000,6.0927e-11,
100000,6.1627e-11,
0,6.2429e-11,
-100000,6.1006e-11,
-200000,5.8482e-11,
-300000,6.1092e-11,
-400000,6.1799e-11,
-500000,6.6435e-11,
-600000,8.0218e-11,
-700000,1.0422e-10,
-800000,1.4166e-10,
-900000,1.6326e-10,
-1000000,1.3879e-10,
-1100000,1.0314e-10,
-1200000,8.2983e-11,
-1300000,7.1734e-11,
-1400000,7.0156e-11,
-1500000,8.0221e-11,
-1600000,1.0449e-10,
-1700000,1.2738e-10,
-1800000,1.3184e-10,
-1900000,1.2069e-10,
-2000000,9.8813e-11,
-2100000,7.4163e-11,
-2200000,6.5621e-11,
-2300000,7.0021e-11,
-2400000,8.7596e-11,
-2500000,1.1834e-10,
-2600000,1.5064e-10,
-2700000,1.6642e-10,
-2800000,1.628e-10,
-2900000,1.387e-10,
-3000000,1.0426e-10,
-3100000,7.8089e-11,
-3200000,6.2226e-11,
-3300000,5.818e-11,
-3400000,5.7412e-11,
-3500000,5.7409e-11,
-3600000,6.0834e-11,
-3700000,6.3815e-11,
-3800000,6.3951e-11,
-3900000,5.9093e-11,
-4000000,5.2685e-11,
-4100000,4.6272e-11,
-4200000,4.3525e-11,
-4300000,3.977e-11,
-4400000,3.7489e-11,
-4500000,3.5485e-11,
-4600000,3.2117e-11,
-4700000,3.2721e-11,
-4800000,3.0845e-11,
-4900000,3.1017e-11,
-5000000,3.061e-11,
-4950000,3.0438e-11,
-4850000,3.0214e-11,
-4750000,3.2313e-11,
-4650000,3.2649e-11,
-4550000,3.4007e-11,
-4450000,3.5128e-11,
-4350000,3.7908e-11,
-4250000,4.1028e-11,
-4150000,4.4971e-11,
-4050000,4.9456e-11,
-3950000,5.5307e-11,
-3850000,6.1481e-11,
-3750000,6.4003e-11,
-3650000,6.1158e-11,
-3550000,6.0552e-11,
-3450000,5.75e-11,
-3350000,5.6559e-11,
-3250000,5.8728e-11,
-3150000,6.7274e-11,
-3050000,8.7949e-11,
-2950000,1.1872e-10,
-2850000,1.5162e-10,
-2750000,1.6756e-10,
-2650000,1.6457e-10,
-2550000,1.4227e-10,
-2450000,1.0739e-10,
-2350000,7.9382e-11,
-2250000,6.7771e-11,
-2150000,6.638e-11,
-2050000,8.2665e-11,
-1950000,1.0912e-10,
-1850000,1.2816e-10,
-1750000,1.3472e-10,
-1650000,1.201e-10,
-1550000,9.4802e-11,
-1450000,7.505e-11,
-1350000,6.9588e-11,
-1250000,7.3999e-11,
-1150000,8.9341e-11,
-1050000,1.132e-10,
-950000,1.5364e-10,
-850000,1.5954e-10,
-750000,1.2809e-10,
-650000,9.1931e-11,
-550000,7.4969e-11,
-450000,6.4557e-11,
-350000,6.0474e-11,
-250000,5.9568e-11,
-150000,5.977e-11,
-50000,6.2234e-11,
50000,6.2023e-11,
150000,6.0788e-11,
