General parameters:
Start time: 2023              9             20             18             49      37.921477
Finish time: 2023              9             20             18             58      39.819344
Dwell time (ms): 3750.000000
Source chamber pressure: Error-S
Differential chamber pressure: 8.16e-07
Sample chamber pressure: 3.62e-08
Example position (nm): -4585000.000000,228000.000000,-2700000.000000
Rotation angle (udeg): 125000125.000000
==========
Instrument status: 
0:Data Directory:/icon/data/2023_08_MoS2_5um_hbn_sub/
1:Sample:MoS2
2:Comments:no
3:PinholePlate:#C13
4:z_Zero:4200
5:Operator:djw77/nav31/kw570
==========
zscan inputs: 
z_sep:50000
z_range:500000 -6000000
data_path:/icon/data/2023_08_MoS2_5um_hbn_sub/
example_pos:-4585000   228000 -2700000
N_dwell:250
sampling_period:15
make_plots:1
m1:0.98976
m2:-0.0073571
==========
Detector params:
Sampling period (ms): 15.000000
N dwell: 250.000000
Filament current (A): 1.540000
Filament emission (mA): 3.052692
Solenoid current (A): NaN
Solenoid shim current (A): NaN
Lens params:
0  685
1  300
2  125
3      -0.002
4       -0.01
5       0.012
6         0.8
7         2.1
8         2.8
9  3000
10  1450
11         0.85
12   0
==========
Data:
z(nm),I(A)
500000,2.2479e-10,
400000,2.3957e-10,
300000,2.5456e-10,
200000,2.8644e-10,
100000,3.0681e-10,
0,3.1952e-10,
-100000,3.3161e-10,
-200000,3.3922e-10,
-300000,3.5164e-10,
-400000,3.8426e-10,
-500000,3.7738e-10,
-600000,3.6362e-10,
-700000,3.796e-10,
-800000,4.0893e-10,
-900000,4.1603e-10,
-1000000,4.1605e-10,
-1100000,4.1256e-10,
-1200000,4.0254e-10,
-1300000,3.9316e-10,
-1400000,3.8451e-10,
-1500000,3.8368e-10,
-1600000,3.7588e-10,
-1700000,3.6736e-10,
-1800000,3.6131e-10,
-1900000,3.546e-10,
-2000000,3.5087e-10,
-2100000,3.4272e-10,
-2200000,3.4385e-10,
-2300000,3.4241e-10,
-2400000,3.4178e-10,
-2500000,3.4283e-10,
-2600000,3.4149e-10,
-2700000,3.4091e-10,
-2800000,3.3067e-10,
-2900000,3.2003e-10,
-3000000,3.0531e-10,
-3100000,2.9335e-10,
-3200000,2.7752e-10,
-3300000,2.6565e-10,
-3400000,2.5235e-10,
-3500000,2.4543e-10,
-3600000,2.3848e-10,
-3700000,2.3004e-10,
-3800000,2.2078e-10,
-3900000,2.1356e-10,
-4000000,2.0891e-10,
-4100000,1.9802e-10,
-4200000,1.8863e-10,
-4300000,1.7962e-10,
-4400000,1.7177e-10,
-4500000,1.6246e-10,
-4600000,1.5469e-10,
-4700000,1.51e-10,
-4800000,1.4822e-10,
-4900000,1.4203e-10,
-5000000,1.3907e-10,
-5100000,1.3748e-10,
-5200000,1.3211e-10,
-5300000,1.2975e-10,
-5400000,1.2819e-10,
-5500000,1.3086e-10,
-5600000,1.2778e-10,
-5700000,1.2633e-10,
-5800000,1.2028e-10,
-5900000,1.1661e-10,
-6000000,1.1358e-10,
-5950000,1.1461e-10,
-5850000,1.1922e-10,
-5750000,1.2176e-10,
-5650000,1.2704e-10,
-5550000,1.2999e-10,
-5450000,1.295e-10,
-5350000,1.289e-10,
-5250000,1.3e-10,
-5150000,1.3457e-10,
-5050000,1.382e-10,
-4950000,1.4115e-10,
-4850000,1.4458e-10,
-4750000,1.4912e-10,
-4650000,1.5457e-10,
-4550000,1.5836e-10,
-4450000,1.6772e-10,
-4350000,1.7504e-10,
-4250000,1.8151e-10,
-4150000,1.9101e-10,
-4050000,2.0169e-10,
-3950000,2.1041e-10,
-3850000,2.1993e-10,
-3750000,2.2678e-10,
-3650000,2.3191e-10,
-3550000,2.4248e-10,
-3450000,2.5141e-10,
-3350000,2.5763e-10,
-3250000,2.7033e-10,
-3150000,2.8368e-10,
-3050000,2.9595e-10,
-2950000,3.0789e-10,
-2850000,3.224e-10,
-2750000,3.3194e-10,
-2650000,3.3721e-10,
-2550000,3.3785e-10,
-2450000,3.3739e-10,
-2350000,3.3866e-10,
-2250000,3.3773e-10,
-2150000,3.3789e-10,
-2050000,3.3917e-10,
-1950000,3.4366e-10,
-1850000,3.4241e-10,
-1750000,3.5795e-10,
-1650000,3.6303e-10,
-1550000,3.6935e-10,
-1450000,3.76e-10,
-1350000,3.7811e-10,
-1250000,3.8534e-10,
-1150000,3.9546e-10,
-1050000,4.0887e-10,
-950000,4.1238e-10,
-850000,4.1417e-10,
-750000,4.0319e-10,
-650000,3.5376e-10,
-550000,3.4769e-10,
-450000,3.5562e-10,
-350000,3.3324e-10,
-250000,2.9727e-10,
-150000,3.0138e-10,
-50000,2.8327e-10,
50000,2.6293e-10,
150000,2.629e-10,
250000,2.3904e-10,
350000,2.1888e-10,
450000,2.0325e-10,
