General parameters:
Start time: 2023              8             22              3             40      30.103489
Finish time: 2023              8             22              3             46      26.311122
Dwell time (ms): 3000.000000
Source chamber pressure: 2.00e+3
Differential chamber pressure: 7.98e-07
Sample chamber pressure: 3.79e-08
Example position (nm): -2866061.272107,182482.870901,-1000000.000000
Rotation angle (udeg): 132500240.000000
==========
Instrument status: 
0:Data Directory:/icon/data/2023_08_MoS2_5um_hbn_sub/
1:Sample:MoS2
2:Comments:no
3:PinholePlate:#C13
4:z_Zero:4200
5:Operator:djw77/nav31/kw570
==========
zscan inputs: 
z_sep:50000
z_range:200000 -5000000
data_path:/icon/data/2023_08_MoS2_5um_hbn_sub/
example_pos:-2866061.2721       182482.8709          -1000000
N_dwell:200
sampling_period:15
make_plots:0
m1:0.98976
m2:-0.0073571
==========
Detector params:
Sampling period (ms): 15.000000
N dwell: 200.000000
Filament current (A): 1.540000
Filament emission (mA): 1.753434
Solenoid current (A): NaN
Solenoid shim current (A): NaN
Lens params:
0  685
1  300
2  125
3      -0.002
4       -0.01
5       0.012
6         0.8
7         2.1
8         2.8
9  3000
10  1450
11         0.85
12   0
==========
Data:
z(nm),I(A)
200000,4.3338e-11,
100000,4.3697e-11,
0,4.4522e-11,
-100000,4.4012e-11,
-200000,4.3727e-11,
-300000,4.3992e-11,
-400000,4.5739e-11,
-500000,4.4639e-11,
-600000,4.4177e-11,
-700000,4.4374e-11,
-800000,4.5475e-11,
-900000,4.5319e-11,
-1000000,4.551e-11,
-1100000,4.566e-11,
-1200000,4.483e-11,
-1300000,4.5819e-11,
-1400000,4.601e-11,
-1500000,4.5874e-11,
-1600000,4.5905e-11,
-1700000,4.6108e-11,
-1800000,4.5785e-11,
-1900000,4.5306e-11,
-2000000,4.5325e-11,
-2100000,4.5363e-11,
-2200000,4.5216e-11,
-2300000,4.4577e-11,
-2400000,4.488e-11,
-2500000,4.3972e-11,
-2600000,4.2959e-11,
-2700000,4.15e-11,
-2800000,4.1595e-11,
-2900000,4.1087e-11,
-3000000,4.052e-11,
-3100000,4.0263e-11,
-3200000,3.9386e-11,
-3300000,3.9052e-11,
-3400000,3.83e-11,
-3500000,3.7247e-11,
-3600000,3.6565e-11,
-3700000,3.6394e-11,
-3800000,3.5151e-11,
-3900000,3.4736e-11,
-4000000,3.4461e-11,
-4100000,3.304e-11,
-4200000,3.358e-11,
-4300000,3.2645e-11,
-4400000,3.144e-11,
-4500000,3.1074e-11,
-4600000,3.0798e-11,
-4700000,3.0448e-11,
-4800000,2.9437e-11,
-4900000,2.9204e-11,
-5000000,2.849e-11,
-4950000,2.8692e-11,
-4850000,2.8613e-11,
-4750000,3.0263e-11,
-4650000,3.0064e-11,
-4550000,3.0083e-11,
-4450000,3.2883e-11,
-4350000,3.2324e-11,
-4250000,3.2535e-11,
-4150000,3.2775e-11,
-4050000,3.326e-11,
-3950000,3.4267e-11,
-3850000,3.467e-11,
-3750000,3.5411e-11,
-3650000,3.5692e-11,
-3550000,3.7368e-11,
-3450000,3.7583e-11,
-3350000,3.8062e-11,
-3250000,3.8658e-11,
-3150000,3.9315e-11,
-3050000,4.0798e-11,
-2950000,4.1559e-11,
-2850000,4.0789e-11,
-2750000,4.1673e-11,
-2650000,4.1259e-11,
-2550000,4.2237e-11,
-2450000,4.4442e-11,
-2350000,4.3665e-11,
-2250000,4.4125e-11,
-2150000,4.6157e-11,
-2050000,4.532e-11,
-1950000,4.5069e-11,
-1850000,4.6338e-11,
-1750000,4.5384e-11,
-1650000,4.5393e-11,
-1550000,4.5156e-11,
-1450000,4.5379e-11,
-1350000,4.5794e-11,
-1250000,4.6117e-11,
-1150000,4.4427e-11,
-1050000,4.5111e-11,
-950000,4.5607e-11,
-850000,4.4641e-11,
-750000,4.4336e-11,
-650000,4.4988e-11,
-550000,4.4103e-11,
-450000,4.4655e-11,
-350000,4.5296e-11,
-250000,4.4312e-11,
-150000,4.452e-11,
-50000,4.4594e-11,
50000,4.3426e-11,
150000,4.2768e-11,
