General parameters:
Start time: 2023              8             18             13              5      59.822867
Finish time: 2023              8             18             13             11      57.531603
Dwell time (ms): 3000.000000
Source chamber pressure: 2.00e+3
Differential chamber pressure: 7.92e-07
Sample chamber pressure: 3.79e-08
Example position (nm): -4071633.040128,-83315.141389,-1000000.000000
Rotation angle (udeg): 55897015.000000
==========
Instrument status: 
0:Data Directory:/icon/data/2023_08_MoS2_5um_hbn_sub/
1:Sample:MoS2
2:Comments:no
3:PinholePlate:#C13
4:z_Zero:4200
5:Operator:djw77/nav31/kw570
==========
zscan inputs: 
z_sep:50000
z_range:200000 -5000000
data_path:/icon/data/2023_08_MoS2_5um_hbn_sub/
example_pos:-4071633.0401     -83315.141389          -1000000
N_dwell:200
sampling_period:15
make_plots:1
m1:0.98976
m2:-0.0073571
==========
Detector params:
Sampling period (ms): 15.000000
N dwell: 200.000000
Filament current (A): 1.540000
Filament emission (mA): 1.673406
Solenoid current (A): NaN
Solenoid shim current (A): NaN
Lens params:
0  685
1  300
2  125
3      -0.002
4       -0.01
5       0.012
6         0.8
7         2.1
8         2.8
9  3000
10  1450
11         0.85
12   0
==========
Data:
z(nm),I(A)
200000,3.742e-11,
100000,3.7659e-11,
0,3.8716e-11,
-100000,3.9376e-11,
-200000,3.8739e-11,
-300000,3.844e-11,
-400000,4.0456e-11,
-500000,4.1698e-11,
-600000,4.1988e-11,
-700000,4.3425e-11,
-800000,4.8065e-11,
-900000,5.3441e-11,
-1000000,5.2143e-11,
-1100000,5.0092e-11,
-1200000,5.0215e-11,
-1300000,4.8463e-11,
-1400000,4.8509e-11,
-1500000,4.9351e-11,
-1600000,4.767e-11,
-1700000,4.7698e-11,
-1800000,4.7283e-11,
-1900000,4.7383e-11,
-2000000,4.7642e-11,
-2100000,4.742e-11,
-2200000,4.5642e-11,
-2300000,4.7015e-11,
-2400000,4.5223e-11,
-2500000,4.561e-11,
-2600000,4.4615e-11,
-2700000,4.3986e-11,
-2800000,4.2335e-11,
-2900000,4.1521e-11,
-3000000,4.0374e-11,
-3100000,3.9643e-11,
-3200000,3.9301e-11,
-3300000,3.8184e-11,
-3400000,3.8234e-11,
-3500000,3.7177e-11,
-3600000,3.5343e-11,
-3700000,3.4892e-11,
-3800000,3.4675e-11,
-3900000,3.358e-11,
-4000000,3.235e-11,
-4100000,3.2005e-11,
-4200000,3.1075e-11,
-4300000,3.083e-11,
-4400000,2.9897e-11,
-4500000,3.0188e-11,
-4600000,2.8874e-11,
-4700000,2.8128e-11,
-4800000,2.7856e-11,
-4900000,2.6676e-11,
-5000000,2.6022e-11,
-4950000,2.7052e-11,
-4850000,2.8153e-11,
-4750000,2.7648e-11,
-4650000,2.8365e-11,
-4550000,2.8507e-11,
-4450000,2.9352e-11,
-4350000,3.01e-11,
-4250000,3.0456e-11,
-4150000,3.1047e-11,
-4050000,3.2277e-11,
-3950000,3.2172e-11,
-3850000,3.345e-11,
-3750000,3.4057e-11,
-3650000,3.4985e-11,
-3550000,3.6491e-11,
-3450000,3.7075e-11,
-3350000,3.7559e-11,
-3250000,3.8874e-11,
-3150000,3.9717e-11,
-3050000,4.0003e-11,
-2950000,4.0562e-11,
-2850000,4.2104e-11,
-2750000,4.2559e-11,
-2650000,4.4496e-11,
-2550000,4.3769e-11,
-2450000,4.4301e-11,
-2350000,4.53e-11,
-2250000,4.6644e-11,
-2150000,4.6737e-11,
-2050000,4.752e-11,
-1950000,4.9026e-11,
-1850000,4.8304e-11,
-1750000,4.837e-11,
-1650000,4.9177e-11,
-1550000,4.9147e-11,
-1450000,5.0146e-11,
-1350000,5.2057e-11,
-1250000,5.1664e-11,
-1150000,5.2267e-11,
-1050000,5.2529e-11,
-950000,5.5276e-11,
-850000,5.6523e-11,
-750000,4.7464e-11,
-650000,4.3108e-11,
-550000,4.3335e-11,
-450000,4.3384e-11,
-350000,4.2405e-11,
-250000,3.9536e-11,
-150000,4.1522e-11,
-50000,3.9777e-11,
50000,4.0519e-11,
150000,3.9705e-11,
