General parameters:
Start time: 2023              9             19             13             31      15.503327
Finish time: 2023              9             19             13             40      17.729753
Dwell time (ms): 3750.000000
Source chamber pressure: Error-S
Differential chamber pressure: 8.18e-07
Sample chamber pressure: 3.58e-08
Example position (nm): -4582000.000000,230000.000000,-1000000.000000
Rotation angle (udeg): 125000025.000000
==========
Instrument status: 
0:Data Directory:/icon/data/2023_08_MoS2_5um_hbn_sub/
1:Sample:MoS2
2:Comments:no
3:PinholePlate:#C13
4:z_Zero:4200
5:Operator:djw77/nav31/kw570
==========
zscan inputs: 
z_sep:50000
z_range:500000 -6000000
data_path:/icon/data/2023_08_MoS2_5um_hbn_sub/
example_pos:-4582000   230000 -1000000
N_dwell:250
sampling_period:15
make_plots:1
m1:0.98976
m2:-0.0073571
==========
Detector params:
Sampling period (ms): 15.000000
N dwell: 250.000000
Filament current (A): 1.540000
Filament emission (mA): 3.198042
Solenoid current (A): NaN
Solenoid shim current (A): NaN
Lens params:
0  685
1  300
2  125
3      -0.002
4       -0.01
5       0.012
6         0.8
7         2.1
8         2.8
9  3000
10  1450
11         0.85
12   0
==========
Data:
z(nm),I(A)
500000,1.8786e-10,
400000,1.9051e-10,
300000,1.8851e-10,
200000,1.8932e-10,
100000,1.8793e-10,
0,1.9116e-10,
-100000,1.9372e-10,
-200000,1.9667e-10,
-300000,1.9604e-10,
-400000,2.0023e-10,
-500000,2.0172e-10,
-600000,2.059e-10,
-700000,2.0795e-10,
-800000,2.0898e-10,
-900000,2.1078e-10,
-1000000,2.1135e-10,
-1100000,2.1317e-10,
-1200000,2.1359e-10,
-1300000,2.159e-10,
-1400000,2.1617e-10,
-1500000,2.1667e-10,
-1600000,2.1781e-10,
-1700000,2.1596e-10,
-1800000,2.1935e-10,
-1900000,2.1715e-10,
-2000000,2.1468e-10,
-2100000,2.1303e-10,
-2200000,2.1091e-10,
-2300000,2.1125e-10,
-2400000,2.0982e-10,
-2500000,2.0607e-10,
-2600000,2.0517e-10,
-2700000,2.0207e-10,
-2800000,2.0054e-10,
-2900000,1.9757e-10,
-3000000,1.9434e-10,
-3100000,1.9293e-10,
-3200000,1.9147e-10,
-3300000,1.8821e-10,
-3400000,1.8461e-10,
-3500000,1.8321e-10,
-3600000,1.7892e-10,
-3700000,1.7842e-10,
-3800000,1.7379e-10,
-3900000,1.7117e-10,
-4000000,1.6904e-10,
-4100000,1.6638e-10,
-4200000,1.6237e-10,
-4300000,1.6354e-10,
-4400000,1.5767e-10,
-4500000,1.5648e-10,
-4600000,1.5425e-10,
-4700000,1.5166e-10,
-4800000,1.5007e-10,
-4900000,1.489e-10,
-5000000,1.4869e-10,
-5100000,1.4485e-10,
-5200000,1.4166e-10,
-5300000,1.4191e-10,
-5400000,1.3962e-10,
-5500000,1.3768e-10,
-5600000,1.3551e-10,
-5700000,1.3429e-10,
-5800000,1.3439e-10,
-5900000,1.3364e-10,
-6000000,1.3028e-10,
-5950000,1.3049e-10,
-5850000,1.3102e-10,
-5750000,1.3339e-10,
-5650000,1.3424e-10,
-5550000,1.3655e-10,
-5450000,1.4123e-10,
-5350000,1.4071e-10,
-5250000,1.4203e-10,
-5150000,1.4225e-10,
-5050000,1.4447e-10,
-4950000,1.4679e-10,
-4850000,1.4973e-10,
-4750000,1.5207e-10,
-4650000,1.536e-10,
-4550000,1.5615e-10,
-4450000,1.5842e-10,
-4350000,1.6053e-10,
-4250000,1.6381e-10,
-4150000,1.6349e-10,
-4050000,1.6765e-10,
-3950000,1.6998e-10,
-3850000,1.7018e-10,
-3750000,1.7547e-10,
-3650000,1.7626e-10,
-3550000,1.8028e-10,
-3450000,1.8605e-10,
-3350000,1.8589e-10,
-3250000,1.8813e-10,
-3150000,1.9259e-10,
-3050000,1.9287e-10,
-2950000,1.963e-10,
-2850000,1.9941e-10,
-2750000,2.0121e-10,
-2650000,2.0277e-10,
-2550000,2.0674e-10,
-2450000,2.0787e-10,
-2350000,2.106e-10,
-2250000,2.1198e-10,
-2150000,2.1363e-10,
-2050000,2.154e-10,
-1950000,2.1379e-10,
-1850000,2.1814e-10,
-1750000,2.1672e-10,
-1650000,2.1754e-10,
-1550000,2.1674e-10,
-1450000,2.1835e-10,
-1350000,2.1778e-10,
-1250000,2.1638e-10,
-1150000,2.1465e-10,
-1050000,2.1247e-10,
-950000,2.1127e-10,
-850000,2.104e-10,
-750000,2.0845e-10,
-650000,2.0529e-10,
-550000,2.0254e-10,
-450000,2.019e-10,
-350000,1.9759e-10,
-250000,1.9689e-10,
-150000,1.9513e-10,
-50000,1.9145e-10,
50000,1.9028e-10,
150000,1.9091e-10,
250000,1.8999e-10,
350000,1.9052e-10,
450000,1.8935e-10,
