General parameters:
Start time: 2023              8             29              4              2      42.597685
Finish time: 2023              8             29              4              9       46.63991
Dwell time (ms): 3000.000000
Source chamber pressure: 2.00e+3
Differential chamber pressure: 6.05e-07
Sample chamber pressure: 3.62e-08
Example position (nm): -3511010.458467,307882.702920,-1000000.000000
Rotation angle (udeg): 87500110.000000
==========
Instrument status: 
0:Data Directory:/icon/data/2023_08_MoS2_5um_hbn_sub/
1:Sample:MoS2
2:Comments:no
3:PinholePlate:#C13
4:z_Zero:4200
5:Operator:djw77/nav31/kw570
==========
zscan inputs: 
z_sep:50000
z_range:200000 -6000000
data_path:/icon/data/2023_08_MoS2_5um_hbn_sub/
example_pos:-3511010.4585      307882.70292          -1000000
N_dwell:200
sampling_period:15
make_plots:1
m1:0.98976
m2:-0.0073571
==========
Detector params:
Sampling period (ms): 15.000000
N dwell: 200.000000
Filament current (A): 1.540000
Filament emission (mA): 1.922040
Solenoid current (A): NaN
Solenoid shim current (A): NaN
Lens params:
0  685
1  300
2  125
3      -0.002
4       -0.01
5       0.012
6         0.8
7         2.1
8         2.8
9  3000
10  1450
11         0.85
12   0
==========
Data:
z(nm),I(A)
200000,1.286e-10,
100000,1.2494e-10,
0,1.117e-10,
-100000,1.0161e-10,
-200000,9.0622e-11,
-300000,8.2677e-11,
-400000,7.6979e-11,
-500000,7.695e-11,
-600000,8.7026e-11,
-700000,1.1464e-10,
-800000,1.5956e-10,
-900000,2.1227e-10,
-1000000,2.2707e-10,
-1100000,2.0257e-10,
-1200000,1.5248e-10,
-1300000,1.1606e-10,
-1400000,9.2949e-11,
-1500000,8.0236e-11,
-1600000,7.4405e-11,
-1700000,7.1965e-11,
-1800000,7.0821e-11,
-1900000,7.0278e-11,
-2000000,6.958e-11,
-2100000,6.968e-11,
-2200000,7.3383e-11,
-2300000,7.9317e-11,
-2400000,8.6688e-11,
-2500000,9.1503e-11,
-2600000,9.1213e-11,
-2700000,8.2183e-11,
-2800000,7.374e-11,
-2900000,6.4733e-11,
-3000000,5.9199e-11,
-3100000,5.8291e-11,
-3200000,5.816e-11,
-3300000,6.1915e-11,
-3400000,6.4282e-11,
-3500000,6.5364e-11,
-3600000,6.6154e-11,
-3700000,6.3053e-11,
-3800000,5.987e-11,
-3900000,5.2646e-11,
-4000000,4.8847e-11,
-4100000,4.5063e-11,
-4200000,4.2754e-11,
-4300000,4.2072e-11,
-4400000,4.0321e-11,
-4500000,3.9507e-11,
-4600000,3.9141e-11,
-4700000,3.7631e-11,
-4800000,3.8248e-11,
-4900000,3.648e-11,
-5000000,3.5992e-11,
-5100000,3.5902e-11,
-5200000,3.5407e-11,
-5300000,3.4298e-11,
-5400000,3.2942e-11,
-5500000,3.4366e-11,
-5600000,3.3136e-11,
-5700000,3.2419e-11,
-5800000,3.1774e-11,
-5900000,3.1717e-11,
-6000000,3.169e-11,
-5950000,3.1908e-11,
-5850000,3.1509e-11,
-5750000,3.1474e-11,
-5650000,3.3599e-11,
-5550000,3.3934e-11,
-5450000,3.3386e-11,
-5350000,3.3808e-11,
-5250000,3.5251e-11,
-5150000,3.5734e-11,
-5050000,3.5938e-11,
-4950000,3.5904e-11,
-4850000,3.7124e-11,
-4750000,3.8028e-11,
-4650000,3.8311e-11,
-4550000,3.8838e-11,
-4450000,3.9445e-11,
-4350000,4.04e-11,
-4250000,4.2445e-11,
-4150000,4.4085e-11,
-4050000,4.6505e-11,
-3950000,4.9839e-11,
-3850000,5.5467e-11,
-3750000,6.0594e-11,
-3650000,6.4504e-11,
-3550000,6.6574e-11,
-3450000,6.556e-11,
-3350000,6.2251e-11,
-3250000,5.983e-11,
-3150000,5.8459e-11,
-3050000,5.7912e-11,
-2950000,6.0768e-11,
-2850000,6.6938e-11,
-2750000,7.6113e-11,
-2650000,8.7498e-11,
-2550000,9.1631e-11,
-2450000,9.1334e-11,
-2350000,8.4164e-11,
-2250000,7.6695e-11,
-2150000,7.2555e-11,
-2050000,7.138e-11,
-1950000,7.0321e-11,
-1850000,7.0527e-11,
-1750000,7.1882e-11,
-1650000,7.4068e-11,
-1550000,7.6243e-11,
-1450000,8.5666e-11,
-1350000,1.0003e-10,
-1250000,1.2751e-10,
-1150000,1.7201e-10,
-1050000,2.1523e-10,
-950000,2.2584e-10,
-850000,1.9726e-10,
-750000,1.3853e-10,
-650000,9.9868e-11,
-550000,8.2875e-11,
-450000,7.705e-11,
-350000,7.743e-11,
-250000,8.3915e-11,
-150000,9.3064e-11,
-50000,1.0519e-10,
50000,1.1598e-10,
150000,1.2792e-10,
