General parameters:
Start time: 2023              8             22              3             34      30.114753
Finish time: 2023              8             22              3             40       24.95239
Dwell time (ms): 3000.000000
Source chamber pressure: 2.00e+3
Differential chamber pressure: 7.98e-07
Sample chamber pressure: 3.79e-08
Example position (nm): -2897358.003032,202426.001263,-1000000.000000
Rotation angle (udeg): 130000120.000000
==========
Instrument status: 
0:Data Directory:/icon/data/2023_08_MoS2_5um_hbn_sub/
1:Sample:MoS2
2:Comments:no
3:PinholePlate:#C13
4:z_Zero:4200
5:Operator:djw77/nav31/kw570
==========
zscan inputs: 
z_sep:50000
z_range:200000 -5000000
data_path:/icon/data/2023_08_MoS2_5um_hbn_sub/
example_pos:-2897358.003      202426.00126          -1000000
N_dwell:200
sampling_period:15
make_plots:0
m1:0.98976
m2:-0.0073571
==========
Detector params:
Sampling period (ms): 15.000000
N dwell: 200.000000
Filament current (A): 1.540000
Filament emission (mA): 1.756170
Solenoid current (A): NaN
Solenoid shim current (A): NaN
Lens params:
0  685
1  300
2  125
3      -0.002
4       -0.01
5       0.012
6         0.8
7         2.1
8         2.8
9  3000
10  1450
11         0.85
12   0
==========
Data:
z(nm),I(A)
200000,4.2761e-11,
100000,4.3883e-11,
0,4.3754e-11,
-100000,4.3553e-11,
-200000,4.3913e-11,
-300000,4.5229e-11,
-400000,4.441e-11,
-500000,4.3509e-11,
-600000,4.4361e-11,
-700000,4.5105e-11,
-800000,4.535e-11,
-900000,4.4938e-11,
-1000000,4.4735e-11,
-1100000,4.6253e-11,
-1200000,4.4395e-11,
-1300000,4.4943e-11,
-1400000,4.4777e-11,
-1500000,4.4303e-11,
-1600000,4.5774e-11,
-1700000,4.5268e-11,
-1800000,4.6017e-11,
-1900000,4.5025e-11,
-2000000,4.4841e-11,
-2100000,4.5525e-11,
-2200000,4.494e-11,
-2300000,4.5375e-11,
-2400000,4.4509e-11,
-2500000,4.2785e-11,
-2600000,4.3313e-11,
-2700000,4.2658e-11,
-2800000,4.1742e-11,
-2900000,4.0788e-11,
-3000000,4.0632e-11,
-3100000,3.9803e-11,
-3200000,3.9545e-11,
-3300000,3.8969e-11,
-3400000,3.7167e-11,
-3500000,3.7655e-11,
-3600000,3.6251e-11,
-3700000,3.6448e-11,
-3800000,3.5366e-11,
-3900000,3.4274e-11,
-4000000,3.4747e-11,
-4100000,3.3118e-11,
-4200000,3.2959e-11,
-4300000,3.2799e-11,
-4400000,3.1585e-11,
-4500000,3.067e-11,
-4600000,2.9982e-11,
-4700000,2.968e-11,
-4800000,2.9766e-11,
-4900000,2.9845e-11,
-5000000,2.8621e-11,
-4950000,2.7709e-11,
-4850000,2.9113e-11,
-4750000,2.9352e-11,
-4650000,2.9886e-11,
-4550000,3.0802e-11,
-4450000,3.0976e-11,
-4350000,3.2252e-11,
-4250000,3.2065e-11,
-4150000,3.3595e-11,
-4050000,3.3535e-11,
-3950000,3.4195e-11,
-3850000,3.5125e-11,
-3750000,3.5709e-11,
-3650000,3.6415e-11,
-3550000,3.7613e-11,
-3450000,3.7613e-11,
-3350000,3.7927e-11,
-3250000,3.8926e-11,
-3150000,3.9866e-11,
-3050000,4.0385e-11,
-2950000,4.0578e-11,
-2850000,4.11e-11,
-2750000,4.1918e-11,
-2650000,4.1944e-11,
-2550000,4.271e-11,
-2450000,4.4202e-11,
-2350000,4.408e-11,
-2250000,4.4275e-11,
-2150000,4.4411e-11,
-2050000,4.5267e-11,
-1950000,4.5614e-11,
-1850000,4.4536e-11,
-1750000,4.5819e-11,
-1650000,4.5618e-11,
-1550000,4.5849e-11,
-1450000,4.5422e-11,
-1350000,4.5503e-11,
-1250000,4.539e-11,
-1150000,4.5417e-11,
-1050000,4.5402e-11,
-950000,4.4994e-11,
-850000,4.4798e-11,
-750000,4.5222e-11,
-650000,4.4721e-11,
-550000,4.4181e-11,
-450000,4.4207e-11,
-350000,4.3487e-11,
-250000,4.3571e-11,
-150000,4.2864e-11,
-50000,4.3338e-11,
50000,4.4821e-11,
150000,4.2905e-11,
