General parameters:
Start time: 2023              9             22             15             28      23.565295
Finish time: 2023              9             22             15             37      27.270174
Dwell time (ms): 3750.000000
Source chamber pressure: Error-S
Differential chamber pressure: 7.75e-07
Sample chamber pressure: 3.58e-08
Example position (nm): -4612000.000000,250000.000000,-2700000.000000
Rotation angle (udeg): 125000180.000000
==========
Instrument status: 
0:Data Directory:/icon/data/2023_08_MoS2_5um_hbn_sub/
1:Sample:MoS2
2:Comments:no
3:PinholePlate:#C13
4:z_Zero:4200
5:Operator:djw77/nav31/kw570
==========
zscan inputs: 
z_sep:50000
z_range:500000 -6000000
data_path:/icon/data/2023_08_MoS2_5um_hbn_sub/
example_pos:-4612000   250000 -2700000
N_dwell:250
sampling_period:15
make_plots:1
m1:0.98976
m2:-0.0073571
==========
Detector params:
Sampling period (ms): 15.000000
N dwell: 250.000000
Filament current (A): 1.540000
Filament emission (mA): 2.903922
Solenoid current (A): NaN
Solenoid shim current (A): NaN
Lens params:
0  685
1  300
2  125
3      -0.002
4       -0.01
5       0.012
6         0.8
7         2.1
8         2.8
9  3000
10  1450
11         0.85
12   0
==========
Data:
z(nm),I(A)
500000,2.5133e-10,
400000,2.6726e-10,
300000,2.6721e-10,
200000,2.6546e-10,
100000,2.6254e-10,
0,2.5372e-10,
-100000,2.4558e-10,
-200000,2.4383e-10,
-300000,2.4034e-10,
-400000,2.4308e-10,
-500000,2.646e-10,
-600000,3.2223e-10,
-700000,4.4369e-10,
-800000,5.701e-10,
-900000,5.2132e-10,
-1000000,3.5998e-10,
-1100000,2.7158e-10,
-1200000,2.34e-10,
-1300000,2.2786e-10,
-1400000,2.4367e-10,
-1500000,3.0742e-10,
-1600000,4.1199e-10,
-1700000,4.6597e-10,
-1800000,4.5075e-10,
-1900000,3.7254e-10,
-2000000,2.6687e-10,
-2100000,2.2409e-10,
-2200000,2.2962e-10,
-2300000,2.7511e-10,
-2400000,3.8762e-10,
-2500000,5.3713e-10,
-2600000,6.4151e-10,
-2700000,6.5659e-10,
-2800000,5.9611e-10,
-2900000,4.6031e-10,
-3000000,3.158e-10,
-3100000,2.3643e-10,
-3200000,2.1116e-10,
-3300000,2.144e-10,
-3400000,2.3559e-10,
-3500000,2.7718e-10,
-3600000,3.2662e-10,
-3700000,3.5722e-10,
-3800000,3.6514e-10,
-3900000,3.3579e-10,
-4000000,2.8662e-10,
-4100000,2.3204e-10,
-4200000,1.8755e-10,
-4300000,1.6292e-10,
-4400000,1.4854e-10,
-4500000,1.408e-10,
-4600000,1.3725e-10,
-4700000,1.3582e-10,
-4800000,1.3757e-10,
-4900000,1.3836e-10,
-5000000,1.4016e-10,
-5100000,1.4324e-10,
-5200000,1.4537e-10,
-5300000,1.4536e-10,
-5400000,1.4572e-10,
-5500000,1.3176e-10,
-5600000,1.2189e-10,
-5700000,1.235e-10,
-5800000,1.2041e-10,
-5900000,1.143e-10,
-6000000,1.1106e-10,
-5950000,1.1209e-10,
-5850000,1.1847e-10,
-5750000,1.2416e-10,
-5650000,1.2254e-10,
-5550000,1.2217e-10,
-5450000,1.3768e-10,
-5350000,1.4677e-10,
-5250000,1.4554e-10,
-5150000,1.4651e-10,
-5050000,1.4366e-10,
-4950000,1.4143e-10,
-4850000,1.3658e-10,
-4750000,1.35e-10,
-4650000,1.359e-10,
-4550000,1.3765e-10,
-4450000,1.4134e-10,
-4350000,1.5207e-10,
-4250000,1.7208e-10,
-4150000,2.0746e-10,
-4050000,2.5732e-10,
-3950000,3.1082e-10,
-3850000,3.5065e-10,
-3750000,3.666e-10,
-3650000,3.4943e-10,
-3550000,3.0662e-10,
-3450000,2.6026e-10,
-3350000,2.2725e-10,
-3250000,2.1143e-10,
-3150000,2.1818e-10,
-3050000,2.6365e-10,
-2950000,3.6955e-10,
-2850000,5.2661e-10,
-2750000,6.3603e-10,
-2650000,6.6125e-10,
-2550000,6.1651e-10,
-2450000,4.7813e-10,
-2350000,3.3374e-10,
-2250000,2.5093e-10,
-2150000,2.2558e-10,
-2050000,2.3707e-10,
-1950000,3.0573e-10,
-1850000,4.0504e-10,
-1750000,4.5905e-10,
-1650000,4.4444e-10,
-1550000,3.6147e-10,
-1450000,2.7695e-10,
-1350000,2.3218e-10,
-1250000,2.2786e-10,
-1150000,2.4672e-10,
-1050000,3.0047e-10,
-950000,4.2578e-10,
-850000,5.577e-10,
-750000,5.3301e-10,
-650000,3.7627e-10,
-550000,2.9485e-10,
-450000,2.5891e-10,
-350000,2.5212e-10,
-250000,2.5397e-10,
-150000,2.4995e-10,
-50000,2.5951e-10,
50000,2.6316e-10,
150000,2.6432e-10,
250000,2.6612e-10,
350000,2.6462e-10,
450000,2.6148e-10,
