General parameters:
Start time: 2023              8             18             18             44      50.659065
Finish time: 2023              8             18             18             50      46.911387
Dwell time (ms): 3000.000000
Source chamber pressure: 2.00e+3
Differential chamber pressure: 7.95e-07
Sample chamber pressure: 3.84e-08
Example position (nm): -3445000.000000,281000.000000,-1000000.000000
Rotation angle (udeg): 89999950.000000
==========
Instrument status: 
0:Data Directory:/icon/data/2023_08_MoS2_5um_hbn_sub/
1:Sample:MoS2
2:Comments:no
3:PinholePlate:#C13
4:z_Zero:4200
5:Operator:djw77/nav31/kw570
==========
zscan inputs: 
z_sep:50000
z_range:200000 -5000000
data_path:/icon/data/2023_08_MoS2_5um_hbn_sub/
example_pos:-3445000   281000 -1000000
N_dwell:200
sampling_period:15
make_plots:0
m1:0.98976
m2:-0.0073571
==========
Detector params:
Sampling period (ms): 15.000000
N dwell: 200.000000
Filament current (A): 1.540000
Filament emission (mA): 1.664172
Solenoid current (A): NaN
Solenoid shim current (A): NaN
Lens params:
0  685
1  300
2  125
3      -0.002
4       -0.01
5       0.012
6         0.8
7         2.1
8         2.8
9  3000
10  1450
11         0.85
12   0
==========
Data:
z(nm),I(A)
200000,4.5272e-11,
100000,4.6836e-11,
0,4.6845e-11,
-100000,4.3944e-11,
-200000,4.3815e-11,
-300000,4.4242e-11,
-400000,4.1902e-11,
-500000,4.362e-11,
-600000,4.6484e-11,
-700000,4.6242e-11,
-800000,4.4945e-11,
-900000,4.4792e-11,
-1000000,4.6497e-11,
-1100000,4.8886e-11,
-1200000,5.0277e-11,
-1300000,5.3115e-11,
-1400000,5.1144e-11,
-1500000,5.0388e-11,
-1600000,5.1003e-11,
-1700000,4.6384e-11,
-1800000,4.567e-11,
-1900000,4.4597e-11,
-2000000,4.3156e-11,
-2100000,4.2468e-11,
-2200000,4.2719e-11,
-2300000,4.1667e-11,
-2400000,4.2173e-11,
-2500000,4.211e-11,
-2600000,4.0368e-11,
-2700000,4.095e-11,
-2800000,3.995e-11,
-2900000,3.9854e-11,
-3000000,3.7551e-11,
-3100000,3.7659e-11,
-3200000,3.691e-11,
-3300000,3.5469e-11,
-3400000,3.4636e-11,
-3500000,3.5182e-11,
-3600000,3.4488e-11,
-3700000,3.4049e-11,
-3800000,3.3409e-11,
-3900000,3.2754e-11,
-4000000,3.1315e-11,
-4100000,3.0264e-11,
-4200000,3.019e-11,
-4300000,3.0455e-11,
-4400000,2.9412e-11,
-4500000,2.8247e-11,
-4600000,2.7738e-11,
-4700000,2.7215e-11,
-4800000,2.6632e-11,
-4900000,2.6894e-11,
-5000000,2.6244e-11,
-4950000,2.5937e-11,
-4850000,2.7454e-11,
-4750000,2.7633e-11,
-4650000,2.7172e-11,
-4550000,2.8957e-11,
-4450000,2.9188e-11,
-4350000,2.8783e-11,
-4250000,2.9938e-11,
-4150000,3.0899e-11,
-4050000,3.1004e-11,
-3950000,3.1273e-11,
-3850000,3.1772e-11,
-3750000,3.3547e-11,
-3650000,3.3625e-11,
-3550000,3.4338e-11,
-3450000,3.5634e-11,
-3350000,3.5352e-11,
-3250000,3.4905e-11,
-3150000,3.6723e-11,
-3050000,3.7729e-11,
-2950000,3.7925e-11,
-2850000,3.8655e-11,
-2750000,3.9473e-11,
-2650000,4.0009e-11,
-2550000,4.1413e-11,
-2450000,4.0979e-11,
-2350000,4.166e-11,
-2250000,4.0888e-11,
-2150000,4.1296e-11,
-2050000,4.2869e-11,
-1950000,4.2566e-11,
-1850000,4.3829e-11,
-1750000,4.4733e-11,
-1650000,4.5292e-11,
-1550000,4.7724e-11,
-1450000,4.7379e-11,
-1350000,4.8808e-11,
-1250000,5.0477e-11,
-1150000,4.7078e-11,
-1050000,4.6777e-11,
-950000,4.2923e-11,
-850000,4.2564e-11,
-750000,4.4913e-11,
-650000,4.4877e-11,
-550000,4.3758e-11,
-450000,4.2869e-11,
-350000,4.1783e-11,
-250000,4.4212e-11,
-150000,4.465e-11,
-50000,4.5429e-11,
50000,4.6409e-11,
150000,4.5375e-11,
