General parameters:
Start time: 2023              8             21             22              3      35.570862
Finish time: 2023              8             21             22              9      31.599315
Dwell time (ms): 3000.000000
Source chamber pressure: 2.00e+3
Differential chamber pressure: 7.98e-07
Sample chamber pressure: 3.84e-08
Example position (nm): -3468000.000000,316000.000000,-1000000.000000
Rotation angle (udeg): 90000105.000000
==========
Instrument status: 
0:Data Directory:/icon/data/2023_08_MoS2_5um_hbn_sub/
1:Sample:MoS2
2:Comments:no
3:PinholePlate:#C13
4:z_Zero:4200
5:Operator:djw77/nav31/kw570
==========
zscan inputs: 
z_sep:50000
z_range:200000 -5000000
data_path:/icon/data/2023_08_MoS2_5um_hbn_sub/
example_pos:-3468000   316000 -1000000
N_dwell:200
sampling_period:15
make_plots:0
m1:0.98976
m2:-0.0073571
==========
Detector params:
Sampling period (ms): 15.000000
N dwell: 200.000000
Filament current (A): 1.540000
Filament emission (mA): 1.736334
Solenoid current (A): NaN
Solenoid shim current (A): NaN
Lens params:
0  685
1  300
2  125
3      -0.002
4       -0.01
5       0.012
6         0.8
7         2.1
8         2.8
9  3000
10  1450
11         0.85
12   0
==========
Data:
z(nm),I(A)
200000,7.7344e-11,
100000,7.6678e-11,
0,7.2067e-11,
-100000,6.7346e-11,
-200000,6.2821e-11,
-300000,5.9021e-11,
-400000,5.5585e-11,
-500000,5.6867e-11,
-600000,6.5035e-11,
-700000,8.1558e-11,
-800000,1.1449e-10,
-900000,1.4782e-10,
-1000000,1.5956e-10,
-1100000,1.4207e-10,
-1200000,1.0687e-10,
-1300000,8.1057e-11,
-1400000,6.7503e-11,
-1500000,6.0833e-11,
-1600000,5.7284e-11,
-1700000,5.4119e-11,
-1800000,5.2381e-11,
-1900000,5.1247e-11,
-2000000,5.0661e-11,
-2100000,5.1831e-11,
-2200000,5.5154e-11,
-2300000,6.1002e-11,
-2400000,6.8876e-11,
-2500000,7.3821e-11,
-2600000,7.3409e-11,
-2700000,6.5805e-11,
-2800000,5.6233e-11,
-2900000,4.9176e-11,
-3000000,4.4699e-11,
-3100000,4.0593e-11,
-3200000,4.1656e-11,
-3300000,4.2227e-11,
-3400000,4.2293e-11,
-3500000,4.3463e-11,
-3600000,4.3906e-11,
-3700000,4.1332e-11,
-3800000,3.8971e-11,
-3900000,3.7529e-11,
-4000000,3.4414e-11,
-4100000,3.3381e-11,
-4200000,3.2113e-11,
-4300000,3.132e-11,
-4400000,3.0881e-11,
-4500000,2.9358e-11,
-4600000,2.9661e-11,
-4700000,2.7418e-11,
-4800000,2.7483e-11,
-4900000,2.6399e-11,
-5000000,2.585e-11,
-4950000,2.6361e-11,
-4850000,2.6019e-11,
-4750000,2.8831e-11,
-4650000,2.8767e-11,
-4550000,2.9481e-11,
-4450000,2.9885e-11,
-4350000,3.0005e-11,
-4250000,3.1146e-11,
-4150000,3.2186e-11,
-4050000,3.3925e-11,
-3950000,3.5601e-11,
-3850000,3.8e-11,
-3750000,4.0403e-11,
-3650000,4.195e-11,
-3550000,4.3346e-11,
-3450000,4.3065e-11,
-3350000,4.3719e-11,
-3250000,4.1873e-11,
-3150000,4.1116e-11,
-3050000,4.2059e-11,
-2950000,4.484e-11,
-2850000,5.1383e-11,
-2750000,6.0141e-11,
-2650000,6.9968e-11,
-2550000,7.316e-11,
-2450000,7.0779e-11,
-2350000,6.6367e-11,
-2250000,5.7976e-11,
-2150000,5.3603e-11,
-2050000,5.1187e-11,
-1950000,5.0407e-11,
-1850000,5.2295e-11,
-1750000,5.3598e-11,
-1650000,5.4383e-11,
-1550000,5.7336e-11,
-1450000,6.294e-11,
-1350000,7.3792e-11,
-1250000,8.9284e-11,
-1150000,1.2185e-10,
-1050000,1.5125e-10,
-950000,1.5783e-10,
-850000,1.368e-10,
-750000,9.9845e-11,
-650000,7.3639e-11,
-550000,6.1396e-11,
-450000,5.6489e-11,
-350000,5.6483e-11,
-250000,6.1116e-11,
-150000,6.4574e-11,
-50000,6.8875e-11,
50000,7.3893e-11,
150000,7.7745e-11,
