General parameters:
Start time: 2023              8             22             13             24      35.988545
Finish time: 2023              8             22             13             30      31.154009
Dwell time (ms): 3000.000000
Source chamber pressure: 2.00e+3
Differential chamber pressure: 7.98e-07
Sample chamber pressure: 3.83e-08
Example position (nm): -3179671.935626,250036.506653,-1000000.000000
Rotation angle (udeg): 107499845.000000
==========
Instrument status: 
0:Data Directory:/icon/data/2023_08_MoS2_5um_hbn_sub/
1:Sample:MoS2
2:Comments:no
3:PinholePlate:#C13
4:z_Zero:4200
5:Operator:djw77/nav31/kw570
==========
zscan inputs: 
z_sep:50000
z_range:200000 -5000000
data_path:/icon/data/2023_08_MoS2_5um_hbn_sub/
example_pos:-3179671.9356      250036.50665          -1000000
N_dwell:200
sampling_period:15
make_plots:0
m1:0.98976
m2:-0.0073571
==========
Detector params:
Sampling period (ms): 15.000000
N dwell: 200.000000
Filament current (A): 1.540000
Filament emission (mA): 1.736334
Solenoid current (A): NaN
Solenoid shim current (A): NaN
Lens params:
0  685
1  300
2  125
3      -0.002
4       -0.01
5       0.012
6         0.8
7         2.1
8         2.8
9  3000
10  1450
11         0.85
12   0
==========
Data:
z(nm),I(A)
200000,4.5389e-11,
100000,4.4694e-11,
0,4.6174e-11,
-100000,4.483e-11,
-200000,4.582e-11,
-300000,4.7084e-11,
-400000,4.5602e-11,
-500000,4.6753e-11,
-600000,4.7237e-11,
-700000,4.728e-11,
-800000,4.7515e-11,
-900000,4.792e-11,
-1000000,4.8471e-11,
-1100000,4.7733e-11,
-1200000,4.7457e-11,
-1300000,4.7721e-11,
-1400000,4.9549e-11,
-1500000,4.9035e-11,
-1600000,4.8402e-11,
-1700000,4.8431e-11,
-1800000,4.8784e-11,
-1900000,4.8622e-11,
-2000000,4.7766e-11,
-2100000,4.8381e-11,
-2200000,4.68e-11,
-2300000,4.8646e-11,
-2400000,4.6533e-11,
-2500000,4.6262e-11,
-2600000,4.5725e-11,
-2700000,4.69e-11,
-2800000,4.4969e-11,
-2900000,4.4564e-11,
-3000000,4.374e-11,
-3100000,4.2374e-11,
-3200000,4.2684e-11,
-3300000,4.1814e-11,
-3400000,4.1061e-11,
-3500000,4.0037e-11,
-3600000,3.9399e-11,
-3700000,3.9652e-11,
-3800000,3.8039e-11,
-3900000,3.7693e-11,
-4000000,3.7058e-11,
-4100000,3.6704e-11,
-4200000,3.5099e-11,
-4300000,3.4317e-11,
-4400000,3.3136e-11,
-4500000,3.3406e-11,
-4600000,3.2126e-11,
-4700000,3.2071e-11,
-4800000,3.1794e-11,
-4900000,3.1287e-11,
-5000000,3.1106e-11,
-4950000,3.1071e-11,
-4850000,3.1749e-11,
-4750000,3.1789e-11,
-4650000,3.2194e-11,
-4550000,3.3594e-11,
-4450000,3.3011e-11,
-4350000,3.4516e-11,
-4250000,3.566e-11,
-4150000,3.6231e-11,
-4050000,3.6552e-11,
-3950000,3.6821e-11,
-3850000,3.7067e-11,
-3750000,3.8533e-11,
-3650000,3.9103e-11,
-3550000,4.0051e-11,
-3450000,4.1092e-11,
-3350000,4.1134e-11,
-3250000,4.2104e-11,
-3150000,4.3077e-11,
-3050000,4.2085e-11,
-2950000,4.3156e-11,
-2850000,4.4596e-11,
-2750000,4.5311e-11,
-2650000,4.5593e-11,
-2550000,4.7128e-11,
-2450000,4.7062e-11,
-2350000,4.7168e-11,
-2250000,4.8324e-11,
-2150000,4.7901e-11,
-2050000,4.849e-11,
-1950000,4.9048e-11,
-1850000,4.8013e-11,
-1750000,4.9551e-11,
-1650000,4.9127e-11,
-1550000,4.9119e-11,
-1450000,4.9133e-11,
-1350000,4.8491e-11,
-1250000,4.8774e-11,
-1150000,4.8629e-11,
-1050000,4.8167e-11,
-950000,4.7741e-11,
-850000,4.7653e-11,
-750000,4.7383e-11,
-650000,4.7021e-11,
-550000,4.6843e-11,
-450000,4.5942e-11,
-350000,4.458e-11,
-250000,4.5803e-11,
-150000,4.5908e-11,
-50000,4.6709e-11,
50000,4.5523e-11,
150000,4.4037e-11,
