General parameters:
Start time: 2023              8             18             20             15      31.687829
Finish time: 2023              8             18             20             21      27.707269
Dwell time (ms): 3000.000000
Source chamber pressure: 2.00e+3
Differential chamber pressure: 7.93e-07
Sample chamber pressure: 3.84e-08
Example position (nm): -2868773.396151,180308.836031,-1000000.000000
Rotation angle (udeg): 127499705.000000
==========
Instrument status: 
0:Data Directory:/icon/data/2023_08_MoS2_5um_hbn_sub/
1:Sample:MoS2
2:Comments:no
3:PinholePlate:#C13
4:z_Zero:4200
5:Operator:djw77/nav31/kw570
==========
zscan inputs: 
z_sep:50000
z_range:200000 -5000000
data_path:/icon/data/2023_08_MoS2_5um_hbn_sub/
example_pos:-2868773.3962      180308.83603          -1000000
N_dwell:200
sampling_period:15
make_plots:0
m1:0.98976
m2:-0.0073571
==========
Detector params:
Sampling period (ms): 15.000000
N dwell: 200.000000
Filament current (A): 1.540000
Filament emission (mA): 1.673064
Solenoid current (A): NaN
Solenoid shim current (A): NaN
Lens params:
0  685
1  300
2  125
3      -0.002
4       -0.01
5       0.012
6         0.8
7         2.1
8         2.8
9  3000
10  1450
11         0.85
12   0
==========
Data:
z(nm),I(A)
200000,4.0588e-11,
100000,4.1048e-11,
0,4.1268e-11,
-100000,4.0905e-11,
-200000,4.1398e-11,
-300000,4.0851e-11,
-400000,4.1415e-11,
-500000,4.1099e-11,
-600000,4.1035e-11,
-700000,4.1549e-11,
-800000,4.2019e-11,
-900000,4.2622e-11,
-1000000,4.3525e-11,
-1100000,4.2137e-11,
-1200000,4.2212e-11,
-1300000,4.3495e-11,
-1400000,4.2629e-11,
-1500000,4.4588e-11,
-1600000,4.2662e-11,
-1700000,4.3716e-11,
-1800000,4.3505e-11,
-1900000,4.1927e-11,
-2000000,4.1711e-11,
-2100000,4.3023e-11,
-2200000,4.2568e-11,
-2300000,4.2974e-11,
-2400000,4.133e-11,
-2500000,4.1367e-11,
-2600000,4.0562e-11,
-2700000,3.879e-11,
-2800000,3.9328e-11,
-2900000,3.8767e-11,
-3000000,3.87e-11,
-3100000,3.7633e-11,
-3200000,3.7627e-11,
-3300000,3.6257e-11,
-3400000,3.5671e-11,
-3500000,3.5055e-11,
-3600000,3.5582e-11,
-3700000,3.4105e-11,
-3800000,3.37e-11,
-3900000,3.2893e-11,
-4000000,3.1831e-11,
-4100000,3.1976e-11,
-4200000,3.2151e-11,
-4300000,3.0094e-11,
-4400000,3.0727e-11,
-4500000,2.8946e-11,
-4600000,2.9042e-11,
-4700000,2.8081e-11,
-4800000,2.8075e-11,
-4900000,2.7945e-11,
-5000000,2.7413e-11,
-4950000,2.7549e-11,
-4850000,2.7034e-11,
-4750000,2.7979e-11,
-4650000,2.8008e-11,
-4550000,2.8681e-11,
-4450000,2.9107e-11,
-4350000,3.0557e-11,
-4250000,3.1312e-11,
-4150000,3.1519e-11,
-4050000,3.2416e-11,
-3950000,3.2061e-11,
-3850000,3.3147e-11,
-3750000,3.3237e-11,
-3650000,3.4061e-11,
-3550000,3.54e-11,
-3450000,3.5668e-11,
-3350000,3.6899e-11,
-3250000,3.7099e-11,
-3150000,3.7313e-11,
-3050000,3.8375e-11,
-2950000,3.8617e-11,
-2850000,3.9361e-11,
-2750000,4.0085e-11,
-2650000,4.0122e-11,
-2550000,4.0743e-11,
-2450000,4.1016e-11,
-2350000,4.1777e-11,
-2250000,4.1847e-11,
-2150000,4.2364e-11,
-2050000,4.1858e-11,
-1950000,4.2688e-11,
-1850000,4.3228e-11,
-1750000,4.1571e-11,
-1650000,4.4031e-11,
-1550000,4.317e-11,
-1450000,4.3625e-11,
-1350000,4.1911e-11,
-1250000,4.3208e-11,
-1150000,4.2691e-11,
-1050000,4.1832e-11,
-950000,4.2668e-11,
-850000,4.215e-11,
-750000,4.2405e-11,
-650000,4.1371e-11,
-550000,4.2037e-11,
-450000,4.1826e-11,
-350000,4.1458e-11,
-250000,4.1917e-11,
-150000,4.2115e-11,
-50000,4.0811e-11,
50000,4.0614e-11,
150000,4.0341e-11,
