General parameters:
Start time: 2023              8             19             17             22      29.481536
Finish time: 2023              8             19             17             28      34.739832
Dwell time (ms): 3000.000000
Source chamber pressure: 2.00e+3
Differential chamber pressure: 7.98e-07
Sample chamber pressure: 3.79e-08
Example position (nm): -2818542.872102,155447.729533,-1000000.000000
Rotation angle (udeg): 132499980.000000
==========
Instrument status: 
0:Data Directory:/icon/data/2023_08_MoS2_5um_hbn_sub/
1:Sample:MoS2
2:Comments:no
3:PinholePlate:#C13
4:z_Zero:4200
5:Operator:djw77/nav31/kw570
==========
zscan inputs: 
z_sep:50000
z_range:200000 -5000000
data_path:/icon/data/2023_08_MoS2_5um_hbn_sub/
example_pos:-2818542.8721      155447.72953          -1000000
N_dwell:200
sampling_period:15
make_plots:0
m1:0.98976
m2:-0.0073571
==========
Detector params:
Sampling period (ms): 15.000000
N dwell: 200.000000
Filament current (A): 1.540000
Filament emission (mA): 1.695294
Solenoid current (A): NaN
Solenoid shim current (A): NaN
Lens params:
0  685
1  300
2  125
3      -0.002
4       -0.01
5       0.012
6         0.8
7         2.1
8         2.8
9  3000
10  1450
11         0.85
12   0
==========
Data:
z(nm),I(A)
200000,4.5084e-11,
100000,4.5651e-11,
0,4.4874e-11,
-100000,4.4629e-11,
-200000,4.5362e-11,
-300000,4.6706e-11,
-400000,4.6116e-11,
-500000,4.6742e-11,
-600000,4.5471e-11,
-700000,4.7637e-11,
-800000,4.6841e-11,
-900000,4.8045e-11,
-1000000,4.7546e-11,
-1100000,4.7251e-11,
-1200000,4.7609e-11,
-1300000,4.6794e-11,
-1400000,4.797e-11,
-1500000,4.6671e-11,
-1600000,4.8461e-11,
-1700000,4.8333e-11,
-1800000,4.7882e-11,
-1900000,4.7195e-11,
-2000000,4.7024e-11,
-2100000,4.6322e-11,
-2200000,4.6524e-11,
-2300000,4.6474e-11,
-2400000,4.518e-11,
-2500000,4.5915e-11,
-2600000,4.509e-11,
-2700000,4.4789e-11,
-2800000,4.2938e-11,
-2900000,4.3661e-11,
-3000000,4.2908e-11,
-3100000,4.217e-11,
-3200000,4.0487e-11,
-3300000,4.0779e-11,
-3400000,3.9624e-11,
-3500000,3.8322e-11,
-3600000,3.8675e-11,
-3700000,3.7343e-11,
-3800000,3.6778e-11,
-3900000,3.6344e-11,
-4000000,3.5745e-11,
-4100000,3.4924e-11,
-4200000,3.4711e-11,
-4300000,3.356e-11,
-4400000,3.3082e-11,
-4500000,3.2358e-11,
-4600000,3.2185e-11,
-4700000,3.1913e-11,
-4800000,3.0726e-11,
-4900000,3.0699e-11,
-5000000,3.0036e-11,
-4950000,3.0279e-11,
-4850000,3.1232e-11,
-4750000,3.1728e-11,
-4650000,3.2184e-11,
-4550000,3.2313e-11,
-4450000,3.2756e-11,
-4350000,3.3064e-11,
-4250000,3.4457e-11,
-4150000,3.5286e-11,
-4050000,3.6229e-11,
-3950000,3.6843e-11,
-3850000,3.6728e-11,
-3750000,3.8054e-11,
-3650000,3.9269e-11,
-3550000,3.8687e-11,
-3450000,4.0612e-11,
-3350000,4.0056e-11,
-3250000,4.1075e-11,
-3150000,4.1704e-11,
-3050000,4.281e-11,
-2950000,4.2395e-11,
-2850000,4.3255e-11,
-2750000,4.4826e-11,
-2650000,4.5331e-11,
-2550000,4.5465e-11,
-2450000,4.6565e-11,
-2350000,4.5592e-11,
-2250000,4.7352e-11,
-2150000,4.8201e-11,
-2050000,4.8359e-11,
-1950000,4.8391e-11,
-1850000,4.791e-11,
-1750000,4.8018e-11,
-1650000,4.7849e-11,
-1550000,4.7934e-11,
-1450000,4.8187e-11,
-1350000,4.8331e-11,
-1250000,4.8426e-11,
-1150000,4.7845e-11,
-1050000,4.6942e-11,
-950000,4.7506e-11,
-850000,4.7308e-11,
-750000,4.7631e-11,
-650000,4.7181e-11,
-550000,4.6394e-11,
-450000,4.632e-11,
-350000,4.7222e-11,
-250000,4.5843e-11,
-150000,4.6997e-11,
-50000,4.5906e-11,
50000,4.5336e-11,
150000,4.6796e-11,
