General parameters:
Start time: 2023              8             18             16              5      55.101557
Finish time: 2023              8             18             16             11      54.198805
Dwell time (ms): 3000.000000
Source chamber pressure: 2.00e+3
Differential chamber pressure: 7.91e-07
Sample chamber pressure: 3.94e-08
Example position (nm): -3744079.339250,178963.219312,-1000000.000000
Rotation angle (udeg): 69999685.000000
==========
Instrument status: 
0:Data Directory:/icon/data/2023_08_MoS2_5um_hbn_sub/
1:Sample:MoS2
2:Comments:no
3:PinholePlate:#C13
4:z_Zero:4200
5:Operator:djw77/nav31/kw570
==========
zscan inputs: 
z_sep:50000
z_range:200000 -5000000
data_path:/icon/data/2023_08_MoS2_5um_hbn_sub/
example_pos:-3744079.3392      178963.21931          -1000000
N_dwell:200
sampling_period:15
make_plots:1
m1:0.98976
m2:-0.0073571
==========
Detector params:
Sampling period (ms): 15.000000
N dwell: 200.000000
Filament current (A): 1.540000
Filament emission (mA): 1.654596
Solenoid current (A): NaN
Solenoid shim current (A): NaN
Lens params:
0  685
1  300
2  125
3      -0.002
4       -0.01
5       0.012
6         0.8
7         2.1
8         2.8
9  3000
10  1450
11         0.85
12   0
==========
Data:
z(nm),I(A)
200000,3.7528e-11,
100000,3.7787e-11,
0,3.627e-11,
-100000,3.5394e-11,
-200000,3.5687e-11,
-300000,3.485e-11,
-400000,3.6651e-11,
-500000,3.73e-11,
-600000,3.8696e-11,
-700000,3.8588e-11,
-800000,3.8406e-11,
-900000,3.884e-11,
-1000000,4.1182e-11,
-1100000,4.2185e-11,
-1200000,4.3794e-11,
-1300000,4.4618e-11,
-1400000,4.4274e-11,
-1500000,4.2284e-11,
-1600000,4.1447e-11,
-1700000,4.1538e-11,
-1800000,4.2976e-11,
-1900000,4.1473e-11,
-2000000,4.2328e-11,
-2100000,4.0656e-11,
-2200000,4.1054e-11,
-2300000,3.9571e-11,
-2400000,3.8884e-11,
-2500000,3.9759e-11,
-2600000,3.8471e-11,
-2700000,3.8115e-11,
-2800000,3.772e-11,
-2900000,3.6905e-11,
-3000000,3.7029e-11,
-3100000,3.6109e-11,
-3200000,3.4831e-11,
-3300000,3.4677e-11,
-3400000,3.3542e-11,
-3500000,3.3762e-11,
-3600000,3.2938e-11,
-3700000,3.1062e-11,
-3800000,3.2184e-11,
-3900000,3.068e-11,
-4000000,3.0451e-11,
-4100000,3.076e-11,
-4200000,2.9268e-11,
-4300000,2.9039e-11,
-4400000,2.9007e-11,
-4500000,2.7523e-11,
-4600000,2.8342e-11,
-4700000,2.6868e-11,
-4800000,2.5633e-11,
-4900000,2.4611e-11,
-5000000,2.4725e-11,
-4950000,2.5485e-11,
-4850000,2.567e-11,
-4750000,2.6937e-11,
-4650000,2.703e-11,
-4550000,2.7388e-11,
-4450000,2.7641e-11,
-4350000,2.8563e-11,
-4250000,2.9265e-11,
-4150000,3.0473e-11,
-4050000,3.0596e-11,
-3950000,3.0538e-11,
-3850000,3.1514e-11,
-3750000,3.172e-11,
-3650000,3.2757e-11,
-3550000,3.3465e-11,
-3450000,3.4119e-11,
-3350000,3.4397e-11,
-3250000,3.5042e-11,
-3150000,3.597e-11,
-3050000,3.6208e-11,
-2950000,3.7274e-11,
-2850000,3.8378e-11,
-2750000,3.7472e-11,
-2650000,3.7856e-11,
-2550000,3.9213e-11,
-2450000,3.9726e-11,
-2350000,3.9112e-11,
-2250000,4.0487e-11,
-2150000,4.0502e-11,
-2050000,4.1174e-11,
-1950000,4.0964e-11,
-1850000,3.9766e-11,
-1750000,4.0376e-11,
-1650000,4.0673e-11,
-1550000,4.062e-11,
-1450000,4.0383e-11,
-1350000,4.0647e-11,
-1250000,4.1455e-11,
-1150000,3.9511e-11,
-1050000,3.9985e-11,
-950000,3.8245e-11,
-850000,3.7434e-11,
-750000,3.8338e-11,
-650000,3.7316e-11,
-550000,3.6236e-11,
-450000,3.6701e-11,
-350000,3.6665e-11,
-250000,3.5504e-11,
-150000,3.4511e-11,
-50000,3.5942e-11,
50000,3.8215e-11,
150000,3.8187e-11,
