General parameters:
Start time: 2023              8             19             15              9      12.637399
Finish time: 2023              8             19             15             15      11.317082
Dwell time (ms): 3000.000000
Source chamber pressure: 2.00e+3
Differential chamber pressure: 7.97e-07
Sample chamber pressure: 3.84e-08
Example position (nm): -3659718.142858,224234.931238,-1000000.000000
Rotation angle (udeg): 77499870.000000
==========
Instrument status: 
0:Data Directory:/icon/data/2023_08_MoS2_5um_hbn_sub/
1:Sample:MoS2
2:Comments:no
3:PinholePlate:#C13
4:z_Zero:4200
5:Operator:djw77/nav31/kw570
==========
zscan inputs: 
z_sep:50000
z_range:200000 -5000000
data_path:/icon/data/2023_08_MoS2_5um_hbn_sub/
example_pos:-3659718.1429      224234.93124          -1000000
N_dwell:200
sampling_period:15
make_plots:0
m1:0.98976
m2:-0.0073571
==========
Detector params:
Sampling period (ms): 15.000000
N dwell: 200.000000
Filament current (A): 1.540000
Filament emission (mA): 1.681956
Solenoid current (A): NaN
Solenoid shim current (A): NaN
Lens params:
0  685
1  300
2  125
3      -0.002
4       -0.01
5       0.012
6         0.8
7         2.1
8         2.8
9  3000
10  1450
11         0.85
12   0
==========
Data:
z(nm),I(A)
200000,1.0641e-10,
100000,9.0979e-11,
0,8.1753e-11,
-100000,7.7196e-11,
-200000,6.6626e-11,
-300000,5.8139e-11,
-400000,5.2393e-11,
-500000,5.0661e-11,
-600000,5.3761e-11,
-700000,6.4268e-11,
-800000,9.4428e-11,
-900000,1.3126e-10,
-1000000,1.4361e-10,
-1100000,1.1926e-10,
-1200000,8.4139e-11,
-1300000,6.298e-11,
-1400000,5.5807e-11,
-1500000,5.4696e-11,
-1600000,5.4e-11,
-1700000,5.6848e-11,
-1800000,6.0442e-11,
-1900000,6.4103e-11,
-2000000,6.2459e-11,
-2100000,5.6832e-11,
-2200000,5.0724e-11,
-2300000,4.7952e-11,
-2400000,4.7367e-11,
-2500000,4.7902e-11,
-2600000,5.1163e-11,
-2700000,5.267e-11,
-2800000,5.4466e-11,
-2900000,5.1879e-11,
-3000000,5.0929e-11,
-3100000,4.8021e-11,
-3200000,4.5637e-11,
-3300000,4.2443e-11,
-3400000,4.0744e-11,
-3500000,4.0128e-11,
-3600000,3.8164e-11,
-3700000,3.661e-11,
-3800000,3.5153e-11,
-3900000,3.3254e-11,
-4000000,3.3128e-11,
-4100000,3.2039e-11,
-4200000,3.0708e-11,
-4300000,3.0158e-11,
-4400000,2.9547e-11,
-4500000,2.7973e-11,
-4600000,2.781e-11,
-4700000,2.6815e-11,
-4800000,2.735e-11,
-4900000,2.6525e-11,
-5000000,2.5751e-11,
-4950000,2.6311e-11,
-4850000,2.6767e-11,
-4750000,2.7679e-11,
-4650000,2.7175e-11,
-4550000,2.8212e-11,
-4450000,2.8382e-11,
-4350000,2.977e-11,
-4250000,3.0434e-11,
-4150000,3.0415e-11,
-4050000,3.238e-11,
-3950000,3.3163e-11,
-3850000,3.4095e-11,
-3750000,3.5517e-11,
-3650000,3.833e-11,
-3550000,3.911e-11,
-3450000,4.0143e-11,
-3350000,4.2792e-11,
-3250000,4.3391e-11,
-3150000,4.6228e-11,
-3050000,4.9334e-11,
-2950000,5.2609e-11,
-2850000,5.3664e-11,
-2750000,5.3405e-11,
-2650000,5.1273e-11,
-2550000,5.0453e-11,
-2450000,4.7938e-11,
-2350000,4.8435e-11,
-2250000,4.9804e-11,
-2150000,5.4309e-11,
-2050000,6.0857e-11,
-1950000,6.5355e-11,
-1850000,6.6795e-11,
-1750000,6.3611e-11,
-1650000,5.9687e-11,
-1550000,5.7697e-11,
-1450000,5.8891e-11,
-1350000,6.5718e-11,
-1250000,7.7268e-11,
-1150000,1.1238e-10,
-1050000,1.3925e-10,
-950000,1.4397e-10,
-850000,1.2387e-10,
-750000,8.1962e-11,
-650000,5.8489e-11,
-550000,5.0968e-11,
-450000,5.0452e-11,
-350000,5.2622e-11,
-250000,5.9728e-11,
-150000,6.855e-11,
-50000,7.5896e-11,
50000,7.807e-11,
150000,8.6991e-11,
