General parameters:
Start time: 2023              8             23             13             59      38.495931
Finish time: 2023              8             23             14              5      36.327633
Dwell time (ms): 3000.000000
Source chamber pressure: 2.00e+3
Differential chamber pressure: 7.73e-07
Sample chamber pressure: 3.84e-08
Example position (nm): -2964048.953375,239271.709727,-1000000.000000
Rotation angle (udeg): 124999905.000000
==========
Instrument status: 
0:Data Directory:/icon/data/2023_08_MoS2_5um_hbn_sub/
1:Sample:MoS2
2:Comments:no
3:PinholePlate:#C13
4:z_Zero:4200
5:Operator:djw77/nav31/kw570
==========
zscan inputs: 
z_sep:50000
z_range:200000 -5000000
data_path:/icon/data/2023_08_MoS2_5um_hbn_sub/
example_pos:-2964048.9534      239271.70973          -1000000
N_dwell:200
sampling_period:15
make_plots:1
m1:0.98976
m2:-0.0073571
==========
Detector params:
Sampling period (ms): 15.000000
N dwell: 200.000000
Filament current (A): 1.540000
Filament emission (mA): 1.764036
Solenoid current (A): NaN
Solenoid shim current (A): NaN
Lens params:
0  685
1  300
2  125
3      -0.002
4       -0.01
5       0.012
6         0.8
7         2.1
8         2.8
9  3000
10  1450
11         0.85
12   0
==========
Data:
z(nm),I(A)
200000,4.0253e-11,
100000,4.0734e-11,
0,4.159e-11,
-100000,3.9521e-11,
-200000,4.0172e-11,
-300000,4.0893e-11,
-400000,4.0821e-11,
-500000,4.191e-11,
-600000,4.1732e-11,
-700000,4.2005e-11,
-800000,4.148e-11,
-900000,4.238e-11,
-1000000,4.094e-11,
-1100000,4.2352e-11,
-1200000,4.2876e-11,
-1300000,4.3261e-11,
-1400000,4.2722e-11,
-1500000,4.2937e-11,
-1600000,4.26e-11,
-1700000,4.3175e-11,
-1800000,4.2764e-11,
-1900000,4.2492e-11,
-2000000,4.2075e-11,
-2100000,4.199e-11,
-2200000,4.1806e-11,
-2300000,4.1206e-11,
-2400000,4.144e-11,
-2500000,4.022e-11,
-2600000,4.0177e-11,
-2700000,3.9663e-11,
-2800000,3.9738e-11,
-2900000,3.8298e-11,
-3000000,3.7125e-11,
-3100000,3.764e-11,
-3200000,3.7748e-11,
-3300000,3.6012e-11,
-3400000,3.5542e-11,
-3500000,3.4996e-11,
-3600000,3.4629e-11,
-3700000,3.2881e-11,
-3800000,3.2384e-11,
-3900000,3.2197e-11,
-4000000,3.1761e-11,
-4100000,3.1322e-11,
-4200000,3.0793e-11,
-4300000,3.071e-11,
-4400000,2.99e-11,
-4500000,2.8536e-11,
-4600000,2.9109e-11,
-4700000,2.8494e-11,
-4800000,2.7495e-11,
-4900000,2.7582e-11,
-5000000,2.5987e-11,
-4950000,2.6985e-11,
-4850000,2.7166e-11,
-4750000,2.7827e-11,
-4650000,2.853e-11,
-4550000,2.9605e-11,
-4450000,2.9825e-11,
-4350000,2.9767e-11,
-4250000,3.0598e-11,
-4150000,3.1236e-11,
-4050000,3.1573e-11,
-3950000,3.2422e-11,
-3850000,3.2764e-11,
-3750000,3.3817e-11,
-3650000,3.4018e-11,
-3550000,3.4656e-11,
-3450000,3.5077e-11,
-3350000,3.6159e-11,
-3250000,3.6284e-11,
-3150000,3.6833e-11,
-3050000,3.7644e-11,
-2950000,3.8724e-11,
-2850000,3.8339e-11,
-2750000,3.9481e-11,
-2650000,4.0094e-11,
-2550000,4.0026e-11,
-2450000,4.0272e-11,
-2350000,4.1785e-11,
-2250000,4.1505e-11,
-2150000,4.2576e-11,
-2050000,4.1947e-11,
-1950000,4.1299e-11,
-1850000,4.2548e-11,
-1750000,4.3068e-11,
-1650000,4.3163e-11,
-1550000,4.3022e-11,
-1450000,4.2781e-11,
-1350000,4.3042e-11,
-1250000,4.2273e-11,
-1150000,4.2422e-11,
-1050000,4.2253e-11,
-950000,4.1737e-11,
-850000,4.2196e-11,
-750000,4.1755e-11,
-650000,4.1738e-11,
-550000,4.1063e-11,
-450000,4.0302e-11,
-350000,4.1122e-11,
-250000,4.0653e-11,
-150000,4.0895e-11,
-50000,4.0561e-11,
50000,4.008e-11,
150000,4.096e-11,
