General parameters:
Start time: 2023              8             21             22              9      36.748688
Finish time: 2023              8             21             22             15      34.610886
Dwell time (ms): 3000.000000
Source chamber pressure: 2.00e+3
Differential chamber pressure: 7.98e-07
Sample chamber pressure: 3.79e-08
Example position (nm): -3431206.116092,320839.826670,-1000000.000000
Rotation angle (udeg): 92500275.000000
==========
Instrument status: 
0:Data Directory:/icon/data/2023_08_MoS2_5um_hbn_sub/
1:Sample:MoS2
2:Comments:no
3:PinholePlate:#C13
4:z_Zero:4200
5:Operator:djw77/nav31/kw570
==========
zscan inputs: 
z_sep:50000
z_range:200000 -5000000
data_path:/icon/data/2023_08_MoS2_5um_hbn_sub/
example_pos:-3431206.1161      320839.82667          -1000000
N_dwell:200
sampling_period:15
make_plots:0
m1:0.98976
m2:-0.0073571
==========
Detector params:
Sampling period (ms): 15.000000
N dwell: 200.000000
Filament current (A): 1.540000
Filament emission (mA): 1.738728
Solenoid current (A): NaN
Solenoid shim current (A): NaN
Lens params:
0  685
1  300
2  125
3      -0.002
4       -0.01
5       0.012
6         0.8
7         2.1
8         2.8
9  3000
10  1450
11         0.85
12   0
==========
Data:
z(nm),I(A)
200000,6.7032e-11,
100000,6.7086e-11,
0,6.6329e-11,
-100000,6.3975e-11,
-200000,6.0993e-11,
-300000,5.806e-11,
-400000,5.5054e-11,
-500000,5.9004e-11,
-600000,6.7194e-11,
-700000,8.7634e-11,
-800000,1.2831e-10,
-900000,1.7032e-10,
-1000000,1.7881e-10,
-1100000,1.5522e-10,
-1200000,1.1211e-10,
-1300000,8.2906e-11,
-1400000,6.7129e-11,
-1500000,6.0273e-11,
-1600000,5.4943e-11,
-1700000,5.3327e-11,
-1800000,5.2029e-11,
-1900000,5.0818e-11,
-2000000,4.9722e-11,
-2100000,5.0379e-11,
-2200000,5.4343e-11,
-2300000,6.1213e-11,
-2400000,7.1681e-11,
-2500000,7.7912e-11,
-2600000,7.9433e-11,
-2700000,7.0984e-11,
-2800000,6.1128e-11,
-2900000,5.0369e-11,
-3000000,4.4346e-11,
-3100000,4.1067e-11,
-3200000,4.0524e-11,
-3300000,4.0005e-11,
-3400000,3.885e-11,
-3500000,4.0233e-11,
-3600000,3.8837e-11,
-3700000,3.7663e-11,
-3800000,3.638e-11,
-3900000,3.481e-11,
-4000000,3.4272e-11,
-4100000,3.3378e-11,
-4200000,3.33e-11,
-4300000,3.205e-11,
-4400000,3.1673e-11,
-4500000,3.1125e-11,
-4600000,3.1025e-11,
-4700000,3.0517e-11,
-4800000,2.9356e-11,
-4900000,2.7763e-11,
-5000000,2.682e-11,
-4950000,2.7545e-11,
-4850000,2.8756e-11,
-4750000,3.024e-11,
-4650000,3.0623e-11,
-4550000,3.1145e-11,
-4450000,3.1857e-11,
-4350000,3.2581e-11,
-4250000,3.2717e-11,
-4150000,3.2491e-11,
-4050000,3.3511e-11,
-3950000,3.3521e-11,
-3850000,3.5514e-11,
-3750000,3.6881e-11,
-3650000,3.8229e-11,
-3550000,3.8497e-11,
-3450000,3.8396e-11,
-3350000,3.9689e-11,
-3250000,3.968e-11,
-3150000,3.9899e-11,
-3050000,4.2328e-11,
-2950000,4.5992e-11,
-2850000,5.5636e-11,
-2750000,6.5013e-11,
-2650000,7.601e-11,
-2550000,7.8921e-11,
-2450000,7.667e-11,
-2350000,6.866e-11,
-2250000,5.8928e-11,
-2150000,5.3327e-11,
-2050000,4.9759e-11,
-1950000,5.0977e-11,
-1850000,5.0525e-11,
-1750000,5.312e-11,
-1650000,5.4292e-11,
-1550000,5.7209e-11,
-1450000,6.1837e-11,
-1350000,7.3427e-11,
-1250000,9.2753e-11,
-1150000,1.2815e-10,
-1050000,1.6626e-10,
-950000,1.8093e-10,
-850000,1.5756e-10,
-750000,1.1014e-10,
-650000,7.7816e-11,
-550000,6.236e-11,
-450000,5.6025e-11,
-350000,5.5631e-11,
-250000,5.9267e-11,
-150000,6.1084e-11,
-50000,6.3819e-11,
50000,6.6588e-11,
150000,6.8089e-11,
