General parameters:
Start time: 2023              8             19             16              9      51.817079
Finish time: 2023              8             19             16             15      48.250215
Dwell time (ms): 3000.000000
Source chamber pressure: 2.00e+3
Differential chamber pressure: 7.97e-07
Sample chamber pressure: 3.79e-08
Example position (nm): -3270516.429074,295140.548765,-1000000.000000
Rotation angle (udeg): 102500090.000000
==========
Instrument status: 
0:Data Directory:/icon/data/2023_08_MoS2_5um_hbn_sub/
1:Sample:MoS2
2:Comments:no
3:PinholePlate:#C13
4:z_Zero:4200
5:Operator:djw77/nav31/kw570
==========
zscan inputs: 
z_sep:50000
z_range:200000 -5000000
data_path:/icon/data/2023_08_MoS2_5um_hbn_sub/
example_pos:-3270516.4291      295140.54876          -1000000
N_dwell:200
sampling_period:15
make_plots:0
m1:0.98976
m2:-0.0073571
==========
Detector params:
Sampling period (ms): 15.000000
N dwell: 200.000000
Filament current (A): 1.540000
Filament emission (mA): 1.687086
Solenoid current (A): NaN
Solenoid shim current (A): NaN
Lens params:
0  685
1  300
2  125
3      -0.002
4       -0.01
5       0.012
6         0.8
7         2.1
8         2.8
9  3000
10  1450
11         0.85
12   0
==========
Data:
z(nm),I(A)
200000,4.4414e-11,
100000,4.4556e-11,
0,4.498e-11,
-100000,4.6059e-11,
-200000,4.6341e-11,
-300000,4.5904e-11,
-400000,4.8088e-11,
-500000,5.1299e-11,
-600000,5.8995e-11,
-700000,7.4077e-11,
-800000,1.0207e-10,
-900000,1.2367e-10,
-1000000,1.3047e-10,
-1100000,1.0333e-10,
-1200000,7.8633e-11,
-1300000,6.4768e-11,
-1400000,5.6965e-11,
-1500000,5.3178e-11,
-1600000,5.5683e-11,
-1700000,5.6342e-11,
-1800000,5.6077e-11,
-1900000,5.1273e-11,
-2000000,4.7477e-11,
-2100000,4.4998e-11,
-2200000,4.5845e-11,
-2300000,4.8114e-11,
-2400000,5.1667e-11,
-2500000,5.3258e-11,
-2600000,5.2107e-11,
-2700000,5.0827e-11,
-2800000,4.7197e-11,
-2900000,4.3865e-11,
-3000000,4.3216e-11,
-3100000,4.4628e-11,
-3200000,4.6126e-11,
-3300000,4.6087e-11,
-3400000,4.8621e-11,
-3500000,4.8736e-11,
-3600000,4.6927e-11,
-3700000,4.3248e-11,
-3800000,3.8304e-11,
-3900000,3.4422e-11,
-4000000,3.2596e-11,
-4100000,3.1489e-11,
-4200000,3.0837e-11,
-4300000,3.0274e-11,
-4400000,2.9548e-11,
-4500000,2.9134e-11,
-4600000,2.8525e-11,
-4700000,2.7732e-11,
-4800000,2.6988e-11,
-4900000,2.636e-11,
-5000000,2.6101e-11,
-4950000,2.6185e-11,
-4850000,2.6889e-11,
-4750000,2.7967e-11,
-4650000,2.7857e-11,
-4550000,2.832e-11,
-4450000,2.8801e-11,
-4350000,3.007e-11,
-4250000,3.0317e-11,
-4150000,3.0511e-11,
-4050000,3.1431e-11,
-3950000,3.2781e-11,
-3850000,3.6492e-11,
-3750000,3.9605e-11,
-3650000,4.4221e-11,
-3550000,4.7611e-11,
-3450000,4.9971e-11,
-3350000,4.862e-11,
-3250000,4.7633e-11,
-3150000,4.503e-11,
-3050000,4.3504e-11,
-2950000,4.3968e-11,
-2850000,4.5183e-11,
-2750000,4.8289e-11,
-2650000,5.1702e-11,
-2550000,5.2627e-11,
-2450000,5.2661e-11,
-2350000,4.9564e-11,
-2250000,4.7261e-11,
-2150000,4.6163e-11,
-2050000,4.6937e-11,
-1950000,4.8511e-11,
-1850000,5.291e-11,
-1750000,5.7934e-11,
-1650000,5.5921e-11,
-1550000,5.4218e-11,
-1450000,5.3508e-11,
-1350000,5.8203e-11,
-1250000,6.7956e-11,
-1150000,8.5936e-11,
-1050000,1.1771e-10,
-950000,1.2962e-10,
-850000,1.1861e-10,
-750000,8.9295e-11,
-650000,6.6337e-11,
-550000,5.4335e-11,
-450000,4.9013e-11,
-350000,4.7006e-11,
-250000,4.6527e-11,
-150000,4.6612e-11,
-50000,4.5479e-11,
50000,4.5339e-11,
150000,4.5213e-11,
