General parameters:
Start time: 2023              8             22             11              6      36.483932
Finish time: 2023              8             22             11             12      31.652278
Dwell time (ms): 3000.000000
Source chamber pressure: 2.00e+3
Differential chamber pressure: 7.97e-07
Sample chamber pressure: 3.84e-08
Example position (nm): -3906660.425766,25688.530734,-1000000.000000
Rotation angle (udeg): 49999890.000000
==========
Instrument status: 
0:Data Directory:/icon/data/2023_08_MoS2_5um_hbn_sub/
1:Sample:MoS2
2:Comments:no
3:PinholePlate:#C13
4:z_Zero:4200
5:Operator:djw77/nav31/kw570
==========
zscan inputs: 
z_sep:50000
z_range:200000 -5000000
data_path:/icon/data/2023_08_MoS2_5um_hbn_sub/
example_pos:-3906660.4258      25688.530734          -1000000
N_dwell:200
sampling_period:15
make_plots:0
m1:0.98976
m2:-0.0073571
==========
Detector params:
Sampling period (ms): 15.000000
N dwell: 200.000000
Filament current (A): 1.540000
Filament emission (mA): 1.751382
Solenoid current (A): NaN
Solenoid shim current (A): NaN
Lens params:
0  685
1  300
2  125
3      -0.002
4       -0.01
5       0.012
6         0.8
7         2.1
8         2.8
9  3000
10  1450
11         0.85
12   0
==========
Data:
z(nm),I(A)
200000,4.0359e-11,
100000,3.9459e-11,
0,3.9883e-11,
-100000,3.9058e-11,
-200000,4.0828e-11,
-300000,4.0554e-11,
-400000,4.0302e-11,
-500000,4.0327e-11,
-600000,4.2283e-11,
-700000,4.2951e-11,
-800000,4.3117e-11,
-900000,4.3534e-11,
-1000000,4.4226e-11,
-1100000,4.3674e-11,
-1200000,4.4514e-11,
-1300000,4.4932e-11,
-1400000,4.5415e-11,
-1500000,4.5722e-11,
-1600000,4.5326e-11,
-1700000,4.5644e-11,
-1800000,4.6797e-11,
-1900000,4.6083e-11,
-2000000,4.5887e-11,
-2100000,4.568e-11,
-2200000,4.4976e-11,
-2300000,4.5956e-11,
-2400000,4.4258e-11,
-2500000,4.4177e-11,
-2600000,4.4697e-11,
-2700000,4.328e-11,
-2800000,4.2195e-11,
-2900000,4.2544e-11,
-3000000,4.0863e-11,
-3100000,4.1154e-11,
-3200000,4.0516e-11,
-3300000,4.0074e-11,
-3400000,3.9346e-11,
-3500000,3.8242e-11,
-3600000,3.7821e-11,
-3700000,3.7427e-11,
-3800000,3.6219e-11,
-3900000,3.6283e-11,
-4000000,3.5461e-11,
-4100000,3.4048e-11,
-4200000,3.4198e-11,
-4300000,3.3078e-11,
-4400000,3.3277e-11,
-4500000,3.2831e-11,
-4600000,3.215e-11,
-4700000,3.1173e-11,
-4800000,3.0016e-11,
-4900000,3.0063e-11,
-5000000,2.9609e-11,
-4950000,2.9142e-11,
-4850000,2.9741e-11,
-4750000,3.0894e-11,
-4650000,3.1035e-11,
-4550000,3.1572e-11,
-4450000,3.1895e-11,
-4350000,3.3475e-11,
-4250000,3.3865e-11,
-4150000,3.4465e-11,
-4050000,3.4431e-11,
-3950000,3.5685e-11,
-3850000,3.6138e-11,
-3750000,3.7209e-11,
-3650000,3.7634e-11,
-3550000,3.8544e-11,
-3450000,3.8013e-11,
-3350000,3.9431e-11,
-3250000,4.0218e-11,
-3150000,4.0829e-11,
-3050000,4.1432e-11,
-2950000,4.2071e-11,
-2850000,4.2767e-11,
-2750000,4.3509e-11,
-2650000,4.3174e-11,
-2550000,4.35e-11,
-2450000,4.4076e-11,
-2350000,4.4893e-11,
-2250000,4.4992e-11,
-2150000,4.5188e-11,
-2050000,4.5871e-11,
-1950000,4.5773e-11,
-1850000,4.4525e-11,
-1750000,4.608e-11,
-1650000,4.7145e-11,
-1550000,4.5715e-11,
-1450000,4.5423e-11,
-1350000,4.5026e-11,
-1250000,4.4916e-11,
-1150000,4.5459e-11,
-1050000,4.4285e-11,
-950000,4.3473e-11,
-850000,4.2635e-11,
-750000,4.2843e-11,
-650000,4.1919e-11,
-550000,4.0987e-11,
-450000,4.0199e-11,
-350000,4.1174e-11,
-250000,4.0785e-11,
-150000,3.9458e-11,
-50000,4.0831e-11,
50000,4.0747e-11,
150000,4.0699e-11,
