General parameters:
Start time: 2023              8             22             11             36      35.271279
Finish time: 2023              8             22             11             42      29.904202
Dwell time (ms): 3000.000000
Source chamber pressure: 2.00e+3
Differential chamber pressure: 7.96e-07
Sample chamber pressure: 3.84e-08
Example position (nm): -3774071.614769,135571.260205,-1000000.000000
Rotation angle (udeg): 62499870.000000
==========
Instrument status: 
0:Data Directory:/icon/data/2023_08_MoS2_5um_hbn_sub/
1:Sample:MoS2
2:Comments:no
3:PinholePlate:#C13
4:z_Zero:4200
5:Operator:djw77/nav31/kw570
==========
zscan inputs: 
z_sep:50000
z_range:200000 -5000000
data_path:/icon/data/2023_08_MoS2_5um_hbn_sub/
example_pos:-3774071.6148      135571.26021          -1000000
N_dwell:200
sampling_period:15
make_plots:0
m1:0.98976
m2:-0.0073571
==========
Detector params:
Sampling period (ms): 15.000000
N dwell: 200.000000
Filament current (A): 1.540000
Filament emission (mA): 1.745226
Solenoid current (A): NaN
Solenoid shim current (A): NaN
Lens params:
0  685
1  300
2  125
3      -0.002
4       -0.01
5       0.012
6         0.8
7         2.1
8         2.8
9  3000
10  1450
11         0.85
12   0
==========
Data:
z(nm),I(A)
200000,4.1975e-11,
100000,4.1389e-11,
0,4.1067e-11,
-100000,4.1267e-11,
-200000,4.1103e-11,
-300000,4.2613e-11,
-400000,4.1408e-11,
-500000,4.2258e-11,
-600000,4.2838e-11,
-700000,4.2808e-11,
-800000,4.3973e-11,
-900000,4.4331e-11,
-1000000,4.542e-11,
-1100000,4.5792e-11,
-1200000,4.5338e-11,
-1300000,4.5201e-11,
-1400000,4.6773e-11,
-1500000,4.7619e-11,
-1600000,4.6873e-11,
-1700000,4.7957e-11,
-1800000,4.8005e-11,
-1900000,4.7463e-11,
-2000000,4.7088e-11,
-2100000,4.6465e-11,
-2200000,4.6403e-11,
-2300000,4.6385e-11,
-2400000,4.475e-11,
-2500000,4.4969e-11,
-2600000,4.4256e-11,
-2700000,4.4445e-11,
-2800000,4.4567e-11,
-2900000,4.3506e-11,
-3000000,4.2451e-11,
-3100000,4.0951e-11,
-3200000,4.1659e-11,
-3300000,4.1161e-11,
-3400000,3.9191e-11,
-3500000,3.9705e-11,
-3600000,3.9043e-11,
-3700000,3.8317e-11,
-3800000,3.7175e-11,
-3900000,3.6887e-11,
-4000000,3.5559e-11,
-4100000,3.4365e-11,
-4200000,3.5002e-11,
-4300000,3.5113e-11,
-4400000,3.3214e-11,
-4500000,3.3023e-11,
-4600000,3.2844e-11,
-4700000,3.1714e-11,
-4800000,3.1238e-11,
-4900000,3.0718e-11,
-5000000,3.0399e-11,
-4950000,2.9815e-11,
-4850000,3.0675e-11,
-4750000,3.1236e-11,
-4650000,3.1214e-11,
-4550000,3.227e-11,
-4450000,3.307e-11,
-4350000,3.4034e-11,
-4250000,3.3973e-11,
-4150000,3.6072e-11,
-4050000,3.5568e-11,
-3950000,3.6086e-11,
-3850000,3.7541e-11,
-3750000,3.7546e-11,
-3650000,3.8098e-11,
-3550000,3.8609e-11,
-3450000,3.9651e-11,
-3350000,3.9853e-11,
-3250000,4.0735e-11,
-3150000,4.1079e-11,
-3050000,4.2387e-11,
-2950000,4.3395e-11,
-2850000,4.3005e-11,
-2750000,4.4025e-11,
-2650000,4.3218e-11,
-2550000,4.5062e-11,
-2450000,4.5521e-11,
-2350000,4.6302e-11,
-2250000,4.6509e-11,
-2150000,4.7058e-11,
-2050000,4.615e-11,
-1950000,4.7095e-11,
-1850000,4.6278e-11,
-1750000,4.6851e-11,
-1650000,4.7789e-11,
-1550000,4.7263e-11,
-1450000,4.6634e-11,
-1350000,4.5277e-11,
-1250000,4.6256e-11,
-1150000,4.4687e-11,
-1050000,4.5636e-11,
-950000,4.4064e-11,
-850000,4.3832e-11,
-750000,4.4745e-11,
-650000,4.3072e-11,
-550000,4.3624e-11,
-450000,4.3241e-11,
-350000,4.303e-11,
-250000,4.1465e-11,
-150000,4.1487e-11,
-50000,4.1068e-11,
50000,4.1373e-11,
150000,4.1532e-11,
