General parameters:
Start time: 2023              8             23             13              5      19.606299
Finish time: 2023              8             23             13             11      16.188848
Dwell time (ms): 3000.000000
Source chamber pressure: 2.00e+3
Differential chamber pressure: 7.72e-07
Sample chamber pressure: 3.84e-08
Example position (nm): -3613991.280935,280427.872230,-1000000.000000
Rotation angle (udeg): 79999850.000000
==========
Instrument status: 
0:Data Directory:/icon/data/2023_08_MoS2_5um_hbn_sub/
1:Sample:MoS2
2:Comments:no
3:PinholePlate:#C13
4:z_Zero:4200
5:Operator:djw77/nav31/kw570
==========
zscan inputs: 
z_sep:50000
z_range:200000 -5000000
data_path:/icon/data/2023_08_MoS2_5um_hbn_sub/
example_pos:-3613991.2809      280427.87223          -1000000
N_dwell:200
sampling_period:15
make_plots:1
m1:0.98976
m2:-0.0073571
==========
Detector params:
Sampling period (ms): 15.000000
N dwell: 200.000000
Filament current (A): 1.540000
Filament emission (mA): 1.775322
Solenoid current (A): NaN
Solenoid shim current (A): NaN
Lens params:
0  685
1  300
2  125
3      -0.002
4       -0.01
5       0.012
6         0.8
7         2.1
8         2.8
9  3000
10  1450
11         0.85
12   0
==========
Data:
z(nm),I(A)
200000,3.5878e-11,
100000,3.5712e-11,
0,3.5569e-11,
-100000,3.5829e-11,
-200000,3.7782e-11,
-300000,3.6086e-11,
-400000,3.6808e-11,
-500000,3.7284e-11,
-600000,3.8394e-11,
-700000,3.9099e-11,
-800000,3.896e-11,
-900000,4.0021e-11,
-1000000,4.1016e-11,
-1100000,3.9395e-11,
-1200000,4.049e-11,
-1300000,3.9865e-11,
-1400000,4.0437e-11,
-1500000,4.0238e-11,
-1600000,4.1031e-11,
-1700000,4.1911e-11,
-1800000,4.1776e-11,
-1900000,4.1146e-11,
-2000000,4.1565e-11,
-2100000,4.1786e-11,
-2200000,4.0514e-11,
-2300000,4.1661e-11,
-2400000,4.0115e-11,
-2500000,3.9272e-11,
-2600000,3.9368e-11,
-2700000,3.9844e-11,
-2800000,3.8293e-11,
-2900000,3.7408e-11,
-3000000,3.6718e-11,
-3100000,3.6908e-11,
-3200000,3.5875e-11,
-3300000,3.6131e-11,
-3400000,3.5437e-11,
-3500000,3.5548e-11,
-3600000,3.3959e-11,
-3700000,3.3183e-11,
-3800000,3.215e-11,
-3900000,3.1784e-11,
-4000000,3.1846e-11,
-4100000,3.0252e-11,
-4200000,3.0637e-11,
-4300000,2.9807e-11,
-4400000,2.823e-11,
-4500000,2.8136e-11,
-4600000,2.8639e-11,
-4700000,2.6768e-11,
-4800000,2.7004e-11,
-4900000,2.6345e-11,
-5000000,2.5962e-11,
-4950000,2.5832e-11,
-4850000,2.6273e-11,
-4750000,2.7231e-11,
-4650000,2.7182e-11,
-4550000,2.759e-11,
-4450000,2.7674e-11,
-4350000,2.8664e-11,
-4250000,2.9185e-11,
-4150000,2.91e-11,
-4050000,3.0812e-11,
-3950000,3.1338e-11,
-3850000,3.1747e-11,
-3750000,3.2438e-11,
-3650000,3.3081e-11,
-3550000,3.4806e-11,
-3450000,3.4982e-11,
-3350000,3.6416e-11,
-3250000,3.6374e-11,
-3150000,3.6361e-11,
-3050000,3.7113e-11,
-2950000,3.7205e-11,
-2850000,3.9043e-11,
-2750000,3.8022e-11,
-2650000,3.9e-11,
-2550000,3.8626e-11,
-2450000,3.9878e-11,
-2350000,4.0823e-11,
-2250000,4.0083e-11,
-2150000,4.056e-11,
-2050000,4.0538e-11,
-1950000,4.2092e-11,
-1850000,4.1199e-11,
-1750000,4.1794e-11,
-1650000,4.1195e-11,
-1550000,4.2277e-11,
-1450000,4.1422e-11,
-1350000,4.1403e-11,
-1250000,4.0758e-11,
-1150000,4.0652e-11,
-1050000,4.1711e-11,
-950000,4.0167e-11,
-850000,3.9872e-11,
-750000,3.9134e-11,
-650000,3.8299e-11,
-550000,3.7501e-11,
-450000,3.703e-11,
-350000,3.7272e-11,
-250000,3.6855e-11,
-150000,3.6785e-11,
-50000,3.6346e-11,
50000,3.6428e-11,
150000,3.651e-11,
