General parameters:
Start time: 2023              8             29              2              8      18.647631
Finish time: 2023              8             29              2             15      22.530231
Dwell time (ms): 3000.000000
Source chamber pressure: 2.00e+3
Differential chamber pressure: 6.07e-07
Sample chamber pressure: 3.62e-08
Example position (nm): -4057417.398207,-17961.364395,-1000000.000000
Rotation angle (udeg): 47500050.000000
==========
Instrument status: 
0:Data Directory:/icon/data/2023_08_MoS2_5um_hbn_sub/
1:Sample:MoS2
2:Comments:no
3:PinholePlate:#C13
4:z_Zero:4200
5:Operator:djw77/nav31/kw570
==========
zscan inputs: 
z_sep:50000
z_range:200000 -6000000
data_path:/icon/data/2023_08_MoS2_5um_hbn_sub/
example_pos:-4057417.3982     -17961.364395          -1000000
N_dwell:200
sampling_period:15
make_plots:1
m1:0.98976
m2:-0.0073571
==========
Detector params:
Sampling period (ms): 15.000000
N dwell: 200.000000
Filament current (A): 1.540000
Filament emission (mA): 1.916910
Solenoid current (A): NaN
Solenoid shim current (A): NaN
Lens params:
0  685
1  300
2  125
3      -0.002
4       -0.01
5       0.012
6         0.8
7         2.1
8         2.8
9  3000
10  1450
11         0.85
12   0
==========
Data:
z(nm),I(A)
200000,5.1586e-11,
100000,5.0114e-11,
0,5.1088e-11,
-100000,5.1434e-11,
-200000,5.1715e-11,
-300000,5.2759e-11,
-400000,5.3687e-11,
-500000,5.445e-11,
-600000,5.4647e-11,
-700000,5.4099e-11,
-800000,5.6189e-11,
-900000,5.6168e-11,
-1000000,5.8105e-11,
-1100000,5.8664e-11,
-1200000,5.7788e-11,
-1300000,5.942e-11,
-1400000,5.9617e-11,
-1500000,5.9984e-11,
-1600000,5.8994e-11,
-1700000,5.9289e-11,
-1800000,5.8529e-11,
-1900000,5.9358e-11,
-2000000,5.866e-11,
-2100000,5.9044e-11,
-2200000,5.8459e-11,
-2300000,5.7822e-11,
-2400000,5.7871e-11,
-2500000,5.7766e-11,
-2600000,5.6622e-11,
-2700000,5.7032e-11,
-2800000,5.5482e-11,
-2900000,5.5501e-11,
-3000000,5.5127e-11,
-3100000,5.2924e-11,
-3200000,5.1456e-11,
-3300000,5.2933e-11,
-3400000,5.2117e-11,
-3500000,5.1199e-11,
-3600000,5.0265e-11,
-3700000,4.8648e-11,
-3800000,4.8358e-11,
-3900000,4.7829e-11,
-4000000,4.6382e-11,
-4100000,4.527e-11,
-4200000,4.3952e-11,
-4300000,4.3892e-11,
-4400000,4.2636e-11,
-4500000,4.308e-11,
-4600000,4.2084e-11,
-4700000,4.0922e-11,
-4800000,4.0731e-11,
-4900000,3.9968e-11,
-5000000,3.9092e-11,
-5100000,3.8459e-11,
-5200000,3.8159e-11,
-5300000,3.6977e-11,
-5400000,3.7279e-11,
-5500000,3.5867e-11,
-5600000,3.5671e-11,
-5700000,3.4907e-11,
-5800000,3.4383e-11,
-5900000,3.4334e-11,
-6000000,3.4286e-11,
-5950000,3.3441e-11,
-5850000,3.37e-11,
-5750000,3.5108e-11,
-5650000,3.5481e-11,
-5550000,3.6084e-11,
-5450000,3.6416e-11,
-5350000,3.7314e-11,
-5250000,3.8313e-11,
-5150000,3.7993e-11,
-5050000,3.8737e-11,
-4950000,3.9422e-11,
-4850000,4.0457e-11,
-4750000,4.0445e-11,
-4650000,4.0455e-11,
-4550000,4.2812e-11,
-4450000,4.2428e-11,
-4350000,4.3255e-11,
-4250000,4.4005e-11,
-4150000,4.465e-11,
-4050000,4.5299e-11,
-3950000,4.6464e-11,
-3850000,4.7997e-11,
-3750000,4.8685e-11,
-3650000,5.0583e-11,
-3550000,4.9953e-11,
-3450000,5.1622e-11,
-3350000,5.142e-11,
-3250000,5.3061e-11,
-3150000,5.2713e-11,
-3050000,5.4492e-11,
-2950000,5.5899e-11,
-2850000,5.4562e-11,
-2750000,5.6114e-11,
-2650000,5.7352e-11,
-2550000,5.7281e-11,
-2450000,5.8589e-11,
-2350000,5.7416e-11,
-2250000,6.0309e-11,
-2150000,5.819e-11,
-2050000,5.8532e-11,
-1950000,5.9826e-11,
-1850000,5.8071e-11,
-1750000,5.9197e-11,
-1650000,5.9549e-11,
-1550000,5.8562e-11,
-1450000,5.944e-11,
-1350000,5.866e-11,
-1250000,5.7902e-11,
-1150000,5.7353e-11,
-1050000,5.6669e-11,
-950000,5.7353e-11,
-850000,5.5788e-11,
-750000,5.6286e-11,
-650000,5.5031e-11,
-550000,5.4588e-11,
-450000,5.327e-11,
-350000,5.2754e-11,
-250000,5.2408e-11,
-150000,5.1306e-11,
-50000,5.2037e-11,
50000,5.1153e-11,
150000,5.0702e-11,
