General parameters:
Start time: 2023              8             18             13             36      14.661954
Finish time: 2023              8             18             13             42      12.905126
Dwell time (ms): 3000.000000
Source chamber pressure: 2.00e+3
Differential chamber pressure: 7.90e-07
Sample chamber pressure: 3.88e-08
Example position (nm): -3773814.385159,190488.280908,-1000000.000000
Rotation angle (udeg): 69999710.000000
==========
Instrument status: 
0:Data Directory:/icon/data/2023_08_MoS2_5um_hbn_sub/
1:Sample:MoS2
2:Comments:no
3:PinholePlate:#C13
4:z_Zero:4200
5:Operator:djw77/nav31/kw570
==========
zscan inputs: 
z_sep:50000
z_range:200000 -5000000
data_path:/icon/data/2023_08_MoS2_5um_hbn_sub/
example_pos:-3773814.3852      190488.28091          -1000000
N_dwell:200
sampling_period:15
make_plots:1
m1:0.98976
m2:-0.0073571
==========
Detector params:
Sampling period (ms): 15.000000
N dwell: 200.000000
Filament current (A): 1.540000
Filament emission (mA): 1.672038
Solenoid current (A): NaN
Solenoid shim current (A): NaN
Lens params:
0  685
1  300
2  125
3      -0.002
4       -0.01
5       0.012
6         0.8
7         2.1
8         2.8
9  3000
10  1450
11         0.85
12   0
==========
Data:
z(nm),I(A)
200000,7.3946e-11,
100000,7.1787e-11,
0,6.7617e-11,
-100000,6.1923e-11,
-200000,5.6288e-11,
-300000,5.3658e-11,
-400000,5.1056e-11,
-500000,4.9583e-11,
-600000,5.1539e-11,
-700000,5.9145e-11,
-800000,7.0753e-11,
-900000,8.3287e-11,
-1000000,8.8487e-11,
-1100000,8.6732e-11,
-1200000,7.6469e-11,
-1300000,6.9838e-11,
-1400000,6.2777e-11,
-1500000,5.9221e-11,
-1600000,6.0487e-11,
-1700000,6.2463e-11,
-1800000,6.7716e-11,
-1900000,7.0247e-11,
-2000000,6.6457e-11,
-2100000,6.1783e-11,
-2200000,5.5964e-11,
-2300000,5.1996e-11,
-2400000,5.1382e-11,
-2500000,5.2679e-11,
-2600000,5.618e-11,
-2700000,6.1029e-11,
-2800000,6.56e-11,
-2900000,7.0069e-11,
-3000000,6.8355e-11,
-3100000,6.0063e-11,
-3200000,5.2318e-11,
-3300000,4.548e-11,
-3400000,4.165e-11,
-3500000,3.9606e-11,
-3600000,3.7161e-11,
-3700000,3.7836e-11,
-3800000,3.8185e-11,
-3900000,3.8679e-11,
-4000000,3.8307e-11,
-4100000,3.7983e-11,
-4200000,3.5807e-11,
-4300000,3.4187e-11,
-4400000,3.0902e-11,
-4500000,2.9886e-11,
-4600000,2.8014e-11,
-4700000,2.6255e-11,
-4800000,2.605e-11,
-4900000,2.4741e-11,
-5000000,2.4035e-11,
-4950000,2.4172e-11,
-4850000,2.5407e-11,
-4750000,2.5685e-11,
-4650000,2.6908e-11,
-4550000,2.8307e-11,
-4450000,2.9729e-11,
-4350000,3.2203e-11,
-4250000,3.4465e-11,
-4150000,3.7815e-11,
-4050000,3.7488e-11,
-3950000,3.8282e-11,
-3850000,3.8547e-11,
-3750000,3.8518e-11,
-3650000,3.7978e-11,
-3550000,3.8289e-11,
-3450000,4.0163e-11,
-3350000,4.3199e-11,
-3250000,4.939e-11,
-3150000,6.043e-11,
-3050000,7.2132e-11,
-2950000,7.9119e-11,
-2850000,8.0548e-11,
-2750000,7.2531e-11,
-2650000,6.3314e-11,
-2550000,5.4819e-11,
-2450000,5.1053e-11,
-2350000,4.9021e-11,
-2250000,5.2457e-11,
-2150000,6.0205e-11,
-2050000,6.8254e-11,
-1950000,7.4459e-11,
-1850000,7.4972e-11,
-1750000,6.7261e-11,
-1650000,6.221e-11,
-1550000,5.9374e-11,
-1450000,5.9027e-11,
-1350000,6.5113e-11,
-1250000,7.4501e-11,
-1150000,8.8785e-11,
-1050000,9.4971e-11,
-950000,9.4735e-11,
-850000,8.3124e-11,
-750000,6.6679e-11,
-650000,5.5218e-11,
-550000,5.117e-11,
-450000,4.9599e-11,
-350000,5.0681e-11,
-250000,5.3933e-11,
-150000,5.7731e-11,
-50000,5.8615e-11,
50000,6.1852e-11,
150000,6.4679e-11,
