General parameters:
Start time: 2023              8             21             23             22      10.413862
Finish time: 2023              8             21             23             28        5.70217
Dwell time (ms): 3000.000000
Source chamber pressure: 2.00e+3
Differential chamber pressure: 7.98e-07
Sample chamber pressure: 3.78e-08
Example position (nm): -2996042.733206,253812.027854,-1000000.000000
Rotation angle (udeg): 122499840.000000
==========
Instrument status: 
0:Data Directory:/icon/data/2023_08_MoS2_5um_hbn_sub/
1:Sample:MoS2
2:Comments:no
3:PinholePlate:#C13
4:z_Zero:4200
5:Operator:djw77/nav31/kw570
==========
zscan inputs: 
z_sep:50000
z_range:200000 -5000000
data_path:/icon/data/2023_08_MoS2_5um_hbn_sub/
example_pos:-2996042.7332      253812.02785          -1000000
N_dwell:200
sampling_period:15
make_plots:0
m1:0.98976
m2:-0.0073571
==========
Detector params:
Sampling period (ms): 15.000000
N dwell: 200.000000
Filament current (A): 1.540000
Filament emission (mA): 1.746594
Solenoid current (A): NaN
Solenoid shim current (A): NaN
Lens params:
0  685
1  300
2  125
3      -0.002
4       -0.01
5       0.012
6         0.8
7         2.1
8         2.8
9  3000
10  1450
11         0.85
12   0
==========
Data:
z(nm),I(A)
200000,4.3872e-11,
100000,4.4189e-11,
0,4.4942e-11,
-100000,4.5226e-11,
-200000,4.475e-11,
-300000,4.5653e-11,
-400000,4.5964e-11,
-500000,4.5595e-11,
-600000,4.5811e-11,
-700000,4.5625e-11,
-800000,4.6102e-11,
-900000,4.6907e-11,
-1000000,4.7727e-11,
-1100000,4.7834e-11,
-1200000,4.7449e-11,
-1300000,4.7851e-11,
-1400000,4.7075e-11,
-1500000,4.7065e-11,
-1600000,4.7359e-11,
-1700000,4.8515e-11,
-1800000,4.756e-11,
-1900000,4.7183e-11,
-2000000,4.7498e-11,
-2100000,4.6601e-11,
-2200000,4.539e-11,
-2300000,4.6129e-11,
-2400000,4.5122e-11,
-2500000,4.5137e-11,
-2600000,4.4253e-11,
-2700000,4.4313e-11,
-2800000,4.3592e-11,
-2900000,4.3547e-11,
-3000000,4.2419e-11,
-3100000,4.1514e-11,
-3200000,4.1245e-11,
-3300000,4.1135e-11,
-3400000,3.9836e-11,
-3500000,3.9036e-11,
-3600000,3.8003e-11,
-3700000,3.8568e-11,
-3800000,3.699e-11,
-3900000,3.7276e-11,
-4000000,3.5875e-11,
-4100000,3.5619e-11,
-4200000,3.4069e-11,
-4300000,3.4025e-11,
-4400000,3.3398e-11,
-4500000,3.2128e-11,
-4600000,3.2187e-11,
-4700000,3.1482e-11,
-4800000,3.0389e-11,
-4900000,3.1253e-11,
-5000000,2.9841e-11,
-4950000,3.0079e-11,
-4850000,2.9868e-11,
-4750000,3.0157e-11,
-4650000,3.1635e-11,
-4550000,3.1817e-11,
-4450000,3.276e-11,
-4350000,3.2075e-11,
-4250000,3.4196e-11,
-4150000,3.4893e-11,
-4050000,3.5035e-11,
-3950000,3.5951e-11,
-3850000,3.6855e-11,
-3750000,3.7647e-11,
-3650000,3.8669e-11,
-3550000,3.9547e-11,
-3450000,3.9308e-11,
-3350000,3.8906e-11,
-3250000,4.1407e-11,
-3150000,4.0791e-11,
-3050000,4.1938e-11,
-2950000,4.3534e-11,
-2850000,4.2802e-11,
-2750000,4.3652e-11,
-2650000,4.4927e-11,
-2550000,4.5265e-11,
-2450000,4.5733e-11,
-2350000,4.5898e-11,
-2250000,4.6203e-11,
-2150000,4.6374e-11,
-2050000,4.7611e-11,
-1950000,4.7148e-11,
-1850000,4.6819e-11,
-1750000,4.7222e-11,
-1650000,4.7552e-11,
-1550000,4.7148e-11,
-1450000,4.8609e-11,
-1350000,4.6574e-11,
-1250000,4.709e-11,
-1150000,4.7063e-11,
-1050000,4.7126e-11,
-950000,4.7434e-11,
-850000,4.6486e-11,
-750000,4.5987e-11,
-650000,4.7073e-11,
-550000,4.577e-11,
-450000,4.573e-11,
-350000,4.6303e-11,
-250000,4.4819e-11,
-150000,4.6098e-11,
-50000,4.5796e-11,
50000,4.4939e-11,
150000,4.4677e-11,
