General parameters:
Start time: 2023              8             18             15             59      51.741103
Finish time: 2023              8             18             16              5      49.807983
Dwell time (ms): 3000.000000
Source chamber pressure: 2.00e+3
Differential chamber pressure: 7.91e-07
Sample chamber pressure: 3.94e-08
Example position (nm): -3811877.907759,137679.298333,-1000000.000000
Rotation angle (udeg): 64999680.000000
==========
Instrument status: 
0:Data Directory:/icon/data/2023_08_MoS2_5um_hbn_sub/
1:Sample:MoS2
2:Comments:no
3:PinholePlate:#C13
4:z_Zero:4200
5:Operator:djw77/nav31/kw570
==========
zscan inputs: 
z_sep:50000
z_range:200000 -5000000
data_path:/icon/data/2023_08_MoS2_5um_hbn_sub/
example_pos:-3811877.9078      137679.29833          -1000000
N_dwell:200
sampling_period:15
make_plots:1
m1:0.98976
m2:-0.0073571
==========
Detector params:
Sampling period (ms): 15.000000
N dwell: 200.000000
Filament current (A): 1.540000
Filament emission (mA): 1.654938
Solenoid current (A): NaN
Solenoid shim current (A): NaN
Lens params:
0  685
1  300
2  125
3      -0.002
4       -0.01
5       0.012
6         0.8
7         2.1
8         2.8
9  3000
10  1450
11         0.85
12   0
==========
Data:
z(nm),I(A)
200000,3.673e-11,
100000,3.5425e-11,
0,3.5838e-11,
-100000,3.5783e-11,
-200000,3.6074e-11,
-300000,3.7258e-11,
-400000,3.5786e-11,
-500000,3.7098e-11,
-600000,3.762e-11,
-700000,3.8375e-11,
-800000,3.8934e-11,
-900000,3.9493e-11,
-1000000,3.9443e-11,
-1100000,4.0258e-11,
-1200000,4.0948e-11,
-1300000,4.1836e-11,
-1400000,4.0872e-11,
-1500000,4.1395e-11,
-1600000,4.0906e-11,
-1700000,4.153e-11,
-1800000,4.1425e-11,
-1900000,4.2149e-11,
-2000000,4.0651e-11,
-2100000,4.1454e-11,
-2200000,4.0923e-11,
-2300000,4.0576e-11,
-2400000,3.9938e-11,
-2500000,4.0914e-11,
-2600000,3.9259e-11,
-2700000,3.9884e-11,
-2800000,3.8822e-11,
-2900000,3.8027e-11,
-3000000,3.8944e-11,
-3100000,3.7208e-11,
-3200000,3.6114e-11,
-3300000,3.5331e-11,
-3400000,3.4846e-11,
-3500000,3.327e-11,
-3600000,3.3559e-11,
-3700000,3.2057e-11,
-3800000,3.2433e-11,
-3900000,3.1621e-11,
-4000000,3.0713e-11,
-4100000,3.0082e-11,
-4200000,2.9399e-11,
-4300000,2.8887e-11,
-4400000,2.7557e-11,
-4500000,2.7091e-11,
-4600000,2.6531e-11,
-4700000,2.7283e-11,
-4800000,2.6022e-11,
-4900000,2.5381e-11,
-5000000,2.4511e-11,
-4950000,2.5124e-11,
-4850000,2.5438e-11,
-4750000,2.5258e-11,
-4650000,2.7516e-11,
-4550000,2.7766e-11,
-4450000,2.7846e-11,
-4350000,2.8525e-11,
-4250000,2.9194e-11,
-4150000,2.9636e-11,
-4050000,3.0037e-11,
-3950000,2.9964e-11,
-3850000,3.0983e-11,
-3750000,3.142e-11,
-3650000,3.3242e-11,
-3550000,3.3442e-11,
-3450000,3.4234e-11,
-3350000,3.3428e-11,
-3250000,3.5802e-11,
-3150000,3.6744e-11,
-3050000,3.8195e-11,
-2950000,3.8566e-11,
-2850000,3.9039e-11,
-2750000,3.9266e-11,
-2650000,3.9186e-11,
-2550000,4.0085e-11,
-2450000,4.1107e-11,
-2350000,4.021e-11,
-2250000,4.083e-11,
-2150000,4.0178e-11,
-2050000,4.2226e-11,
-1950000,4.3012e-11,
-1850000,4.212e-11,
-1750000,4.287e-11,
-1650000,4.2585e-11,
-1550000,4.2783e-11,
-1450000,4.1675e-11,
-1350000,4.1288e-11,
-1250000,4.0875e-11,
-1150000,4.1031e-11,
-1050000,4.1399e-11,
-950000,3.9326e-11,
-850000,3.957e-11,
-750000,3.9961e-11,
-650000,3.8474e-11,
-550000,3.7611e-11,
-450000,3.6054e-11,
-350000,3.6218e-11,
-250000,3.6272e-11,
-150000,3.5542e-11,
-50000,3.4515e-11,
50000,3.5955e-11,
150000,3.601e-11,
