General parameters:
Start time: 2023              8             21             15             54      45.318717
Finish time: 2023              8             21             16              0       39.18767
Dwell time (ms): 3000.000000
Source chamber pressure: 2.00e+3
Differential chamber pressure: 7.98e-07
Sample chamber pressure: 3.79e-08
Example position (nm): -3284051.852864,309956.671940,-1000000.000000
Rotation angle (udeg): 102500165.000000
==========
Instrument status: 
0:Data Directory:/icon/data/2023_08_MoS2_5um_hbn_sub/
1:Sample:MoS2
2:Comments:no
3:PinholePlate:#C13
4:z_Zero:4200
5:Operator:djw77/nav31/kw570
==========
zscan inputs: 
z_sep:50000
z_range:200000 -5000000
data_path:/icon/data/2023_08_MoS2_5um_hbn_sub/
example_pos:-3284051.8529      309956.67194          -1000000
N_dwell:200
sampling_period:15
make_plots:0
m1:0.98976
m2:-0.0073571
==========
Detector params:
Sampling period (ms): 15.000000
N dwell: 200.000000
Filament current (A): 1.540000
Filament emission (mA): 1.740780
Solenoid current (A): NaN
Solenoid shim current (A): NaN
Lens params:
0  685
1  300
2  125
3      -0.002
4       -0.01
5       0.012
6         0.8
7         2.1
8         2.8
9  3000
10  1450
11         0.85
12   0
==========
Data:
z(nm),I(A)
200000,4.71e-11,
100000,4.7353e-11,
0,4.752e-11,
-100000,4.8715e-11,
-200000,4.8732e-11,
-300000,4.8129e-11,
-400000,5.0428e-11,
-500000,5.3066e-11,
-600000,5.8165e-11,
-700000,7.3515e-11,
-800000,1.0194e-10,
-900000,1.3215e-10,
-1000000,1.3103e-10,
-1100000,1.0343e-10,
-1200000,7.8432e-11,
-1300000,6.4162e-11,
-1400000,5.7129e-11,
-1500000,5.3892e-11,
-1600000,5.7278e-11,
-1700000,5.8396e-11,
-1800000,5.714e-11,
-1900000,5.2856e-11,
-2000000,4.9154e-11,
-2100000,4.7738e-11,
-2200000,4.6259e-11,
-2300000,4.9156e-11,
-2400000,5.1768e-11,
-2500000,5.2772e-11,
-2600000,5.1854e-11,
-2700000,5.1394e-11,
-2800000,4.7785e-11,
-2900000,4.4659e-11,
-3000000,4.4549e-11,
-3100000,4.6406e-11,
-3200000,4.8253e-11,
-3300000,5.0621e-11,
-3400000,5.315e-11,
-3500000,5.3566e-11,
-3600000,4.9766e-11,
-3700000,4.5026e-11,
-3800000,4.0338e-11,
-3900000,3.6345e-11,
-4000000,3.3459e-11,
-4100000,3.286e-11,
-4200000,3.1536e-11,
-4300000,3.105e-11,
-4400000,3.046e-11,
-4500000,2.9238e-11,
-4600000,2.8673e-11,
-4700000,2.8455e-11,
-4800000,2.8575e-11,
-4900000,2.7457e-11,
-5000000,2.6928e-11,
-4950000,2.6701e-11,
-4850000,2.761e-11,
-4750000,2.7802e-11,
-4650000,2.8622e-11,
-4550000,2.9638e-11,
-4450000,2.953e-11,
-4350000,3.0917e-11,
-4250000,3.0719e-11,
-4150000,3.1133e-11,
-4050000,3.314e-11,
-3950000,3.5648e-11,
-3850000,3.6823e-11,
-3750000,4.1251e-11,
-3650000,4.6396e-11,
-3550000,5.0263e-11,
-3450000,5.3605e-11,
-3350000,5.1582e-11,
-3250000,4.8876e-11,
-3150000,4.7978e-11,
-3050000,4.4361e-11,
-2950000,4.4514e-11,
-2850000,4.5407e-11,
-2750000,4.8693e-11,
-2650000,5.1995e-11,
-2550000,5.2614e-11,
-2450000,5.2754e-11,
-2350000,4.9679e-11,
-2250000,5.0005e-11,
-2150000,4.7343e-11,
-2050000,4.82e-11,
-1950000,5.1094e-11,
-1850000,5.5523e-11,
-1750000,5.7061e-11,
-1650000,5.7808e-11,
-1550000,5.5735e-11,
-1450000,5.623e-11,
-1350000,5.9281e-11,
-1250000,6.868e-11,
-1150000,8.541e-11,
-1050000,1.1563e-10,
-950000,1.3295e-10,
-850000,1.2535e-10,
-750000,8.6966e-11,
-650000,6.7237e-11,
-550000,5.5346e-11,
-450000,5.2171e-11,
-350000,4.9132e-11,
-250000,4.811e-11,
-150000,4.7373e-11,
-50000,4.8055e-11,
50000,4.6935e-11,
150000,4.636e-11,
