General parameters:
Start time: 2023              8             29              2             58      17.936363
Finish time: 2023              8             29              3              5      21.794809
Dwell time (ms): 3000.000000
Source chamber pressure: 2.00e+3
Differential chamber pressure: 6.06e-07
Sample chamber pressure: 3.52e-08
Example position (nm): -3846257.729481,163930.069246,-1000000.000000
Rotation angle (udeg): 64999620.000000
==========
Instrument status: 
0:Data Directory:/icon/data/2023_08_MoS2_5um_hbn_sub/
1:Sample:MoS2
2:Comments:no
3:PinholePlate:#C13
4:z_Zero:4200
5:Operator:djw77/nav31/kw570
==========
zscan inputs: 
z_sep:50000
z_range:200000 -6000000
data_path:/icon/data/2023_08_MoS2_5um_hbn_sub/
example_pos:-3846257.7295      163930.06925          -1000000
N_dwell:200
sampling_period:15
make_plots:1
m1:0.98976
m2:-0.0073571
==========
Detector params:
Sampling period (ms): 15.000000
N dwell: 200.000000
Filament current (A): 1.540000
Filament emission (mA): 1.921698
Solenoid current (A): NaN
Solenoid shim current (A): NaN
Lens params:
0  685
1  300
2  125
3      -0.002
4       -0.01
5       0.012
6         0.8
7         2.1
8         2.8
9  3000
10  1450
11         0.85
12   0
==========
Data:
z(nm),I(A)
200000,6.5438e-11,
100000,6.877e-11,
0,7.2096e-11,
-100000,7.754e-11,
-200000,7.7171e-11,
-300000,7.6197e-11,
-400000,7.9886e-11,
-500000,8.103e-11,
-600000,8.2652e-11,
-700000,8.9772e-11,
-800000,1.1417e-10,
-900000,1.4457e-10,
-1000000,1.2809e-10,
-1100000,1.1593e-10,
-1200000,1.0438e-10,
-1300000,9.6994e-11,
-1400000,1.0044e-10,
-1500000,1.0527e-10,
-1600000,1.037e-10,
-1700000,1.0554e-10,
-1800000,1.0619e-10,
-1900000,1.1046e-10,
-2000000,1.0792e-10,
-2100000,1.0292e-10,
-2200000,9.2924e-11,
-2300000,8.828e-11,
-2400000,8.6759e-11,
-2500000,8.9103e-11,
-2600000,9.3701e-11,
-2700000,1.0118e-10,
-2800000,1.0556e-10,
-2900000,9.7343e-11,
-3000000,9.3663e-11,
-3100000,9.1677e-11,
-3200000,8.4773e-11,
-3300000,7.8212e-11,
-3400000,6.9688e-11,
-3500000,6.5561e-11,
-3600000,6.3047e-11,
-3700000,6.153e-11,
-3800000,5.9815e-11,
-3900000,5.8095e-11,
-4000000,5.8472e-11,
-4100000,5.5017e-11,
-4200000,5.2711e-11,
-4300000,5.0042e-11,
-4400000,4.7744e-11,
-4500000,4.5162e-11,
-4600000,4.381e-11,
-4700000,4.0995e-11,
-4800000,3.8969e-11,
-4900000,3.8364e-11,
-5000000,3.724e-11,
-5100000,3.6944e-11,
-5200000,3.5669e-11,
-5300000,3.5264e-11,
-5400000,3.3311e-11,
-5500000,3.257e-11,
-5600000,3.3158e-11,
-5700000,3.1362e-11,
-5800000,3.1765e-11,
-5900000,3.1102e-11,
-6000000,3.078e-11,
-5950000,2.9943e-11,
-5850000,3.0635e-11,
-5750000,3.141e-11,
-5650000,3.1712e-11,
-5550000,3.3423e-11,
-5450000,3.2524e-11,
-5350000,3.3421e-11,
-5250000,3.4958e-11,
-5150000,3.6017e-11,
-5050000,3.7029e-11,
-4950000,3.6789e-11,
-4850000,3.8235e-11,
-4750000,3.9615e-11,
-4650000,4.1582e-11,
-4550000,4.2415e-11,
-4450000,4.6497e-11,
-4350000,4.8675e-11,
-4250000,4.9995e-11,
-4150000,5.2867e-11,
-4050000,5.6692e-11,
-3950000,5.8383e-11,
-3850000,5.7877e-11,
-3750000,5.9591e-11,
-3650000,6.0643e-11,
-3550000,6.4701e-11,
-3450000,6.6816e-11,
-3350000,7.1982e-11,
-3250000,7.8878e-11,
-3150000,8.376e-11,
-3050000,8.294e-11,
-2950000,8.6921e-11,
-2850000,8.9834e-11,
-2750000,9.0977e-11,
-2650000,9.0089e-11,
-2550000,8.8422e-11,
-2450000,8.3376e-11,
-2350000,8.5014e-11,
-2250000,8.6608e-11,
-2150000,8.9259e-11,
-2050000,9.5114e-11,
-1950000,9.5645e-11,
-1850000,9.5232e-11,
-1750000,9.5702e-11,
-1650000,9.586e-11,
-1550000,9.6168e-11,
-1450000,9.3886e-11,
-1350000,8.9904e-11,
-1250000,8.1953e-11,
-1150000,8.9002e-11,
-1050000,9.2215e-11,
-950000,1.167e-10,
-850000,1.1443e-10,
-750000,8.9653e-11,
-650000,7.7377e-11,
-550000,7.3398e-11,
-450000,7.3657e-11,
-350000,6.9129e-11,
-250000,6.7987e-11,
-150000,7.0012e-11,
-50000,6.9728e-11,
50000,6.6827e-11,
150000,6.4287e-11,
