General parameters:
Start time: 2023              9             22             10              9      36.344258
Finish time: 2023              9             22             10             18      40.786251
Dwell time (ms): 3750.000000
Source chamber pressure: Error-S
Differential chamber pressure: 7.82e-07
Sample chamber pressure: 3.58e-08
Example position (nm): -4600000.000000,228000.000000,-2700000.000000
Rotation angle (udeg): 124999930.000000
==========
Instrument status: 
0:Data Directory:/icon/data/2023_08_MoS2_5um_hbn_sub/
1:Sample:MoS2
2:Comments:no
3:PinholePlate:#C13
4:z_Zero:4200
5:Operator:djw77/nav31/kw570
==========
zscan inputs: 
z_sep:50000
z_range:500000 -6000000
data_path:/icon/data/2023_08_MoS2_5um_hbn_sub/
example_pos:-4600000   228000 -2700000
N_dwell:250
sampling_period:15
make_plots:1
m1:0.98976
m2:-0.0073571
==========
Detector params:
Sampling period (ms): 15.000000
N dwell: 250.000000
Filament current (A): 1.540000
Filament emission (mA): 2.893662
Solenoid current (A): NaN
Solenoid shim current (A): NaN
Lens params:
0  685
1  300
2  125
3      -0.002
4       -0.01
5       0.012
6         0.8
7         2.1
8         2.8
9  3000
10  1450
11         0.85
12   0
==========
Data:
z(nm),I(A)
500000,2.0529e-10,
400000,2.2546e-10,
300000,2.2067e-10,
200000,2.4053e-10,
100000,2.4785e-10,
0,2.5222e-10,
-100000,2.6925e-10,
-200000,2.784e-10,
-300000,2.9195e-10,
-400000,3.0179e-10,
-500000,3.0795e-10,
-600000,3.0422e-10,
-700000,3.287e-10,
-800000,3.7735e-10,
-900000,3.9826e-10,
-1000000,3.8996e-10,
-1100000,3.8175e-10,
-1200000,3.7691e-10,
-1300000,3.4746e-10,
-1400000,3.4118e-10,
-1500000,3.4043e-10,
-1600000,3.4097e-10,
-1700000,3.4019e-10,
-1800000,3.2719e-10,
-1900000,3.1932e-10,
-2000000,3.1697e-10,
-2100000,3.1343e-10,
-2200000,3.1585e-10,
-2300000,3.2294e-10,
-2400000,3.2581e-10,
-2500000,3.2817e-10,
-2600000,3.2559e-10,
-2700000,3.2001e-10,
-2800000,3.1282e-10,
-2900000,3.0165e-10,
-3000000,2.8913e-10,
-3100000,2.7411e-10,
-3200000,2.633e-10,
-3300000,2.5593e-10,
-3400000,2.4425e-10,
-3500000,2.3635e-10,
-3600000,2.2523e-10,
-3700000,2.1747e-10,
-3800000,2.0894e-10,
-3900000,2.0118e-10,
-4000000,1.9596e-10,
-4100000,1.8571e-10,
-4200000,1.7624e-10,
-4300000,1.6769e-10,
-4400000,1.6209e-10,
-4500000,1.5305e-10,
-4600000,1.4639e-10,
-4700000,1.438e-10,
-4800000,1.392e-10,
-4900000,1.3466e-10,
-5000000,1.3136e-10,
-5100000,1.2877e-10,
-5200000,1.2556e-10,
-5300000,1.2147e-10,
-5400000,1.2334e-10,
-5500000,1.2273e-10,
-5600000,1.2374e-10,
-5700000,1.1723e-10,
-5800000,1.1439e-10,
-5900000,1.1234e-10,
-6000000,1.0859e-10,
-5950000,1.0892e-10,
-5850000,1.1046e-10,
-5750000,1.1435e-10,
-5650000,1.1879e-10,
-5550000,1.2339e-10,
-5450000,1.2344e-10,
-5350000,1.2302e-10,
-5250000,1.2432e-10,
-5150000,1.2559e-10,
-5050000,1.2885e-10,
-4950000,1.3245e-10,
-4850000,1.3664e-10,
-4750000,1.4036e-10,
-4650000,1.4606e-10,
-4550000,1.5117e-10,
-4450000,1.5716e-10,
-4350000,1.6419e-10,
-4250000,1.7297e-10,
-4150000,1.7998e-10,
-4050000,1.8769e-10,
-3950000,1.9894e-10,
-3850000,2.0581e-10,
-3750000,2.1134e-10,
-3650000,2.2015e-10,
-3550000,2.2852e-10,
-3450000,2.3781e-10,
-3350000,2.469e-10,
-3250000,2.5786e-10,
-3150000,2.6675e-10,
-3050000,2.7713e-10,
-2950000,2.8985e-10,
-2850000,3.0253e-10,
-2750000,3.1112e-10,
-2650000,3.1845e-10,
-2550000,3.2023e-10,
-2450000,3.2132e-10,
-2350000,3.2139e-10,
-2250000,3.1158e-10,
-2150000,3.0584e-10,
-2050000,3.0453e-10,
-1950000,3.119e-10,
-1850000,3.1005e-10,
-1750000,3.2681e-10,
-1650000,3.4198e-10,
-1550000,3.499e-10,
-1450000,3.4454e-10,
-1350000,3.4696e-10,
-1250000,3.5775e-10,
-1150000,3.5724e-10,
-1050000,3.8125e-10,
-950000,3.9138e-10,
-850000,3.8468e-10,
-750000,3.4587e-10,
-650000,2.9256e-10,
-550000,3.0039e-10,
-450000,2.8734e-10,
-350000,2.6216e-10,
-250000,2.4882e-10,
-150000,2.5161e-10,
-50000,2.2864e-10,
50000,2.257e-10,
150000,2.3099e-10,
250000,2.1156e-10,
350000,2.0944e-10,
450000,1.9141e-10,
