General parameters:
Start time: 2023              8             21             20             15      19.160333
Finish time: 2023              8             21             20             21      14.734803
Dwell time (ms): 3000.000000
Source chamber pressure: 2.00e+3
Differential chamber pressure: 7.97e-07
Sample chamber pressure: 3.79e-08
Example position (nm): -4024593.577751,-21664.235864,-1000000.000000
Rotation angle (udeg): 44999955.000000
==========
Instrument status: 
0:Data Directory:/icon/data/2023_08_MoS2_5um_hbn_sub/
1:Sample:MoS2
2:Comments:no
3:PinholePlate:#C13
4:z_Zero:4200
5:Operator:djw77/nav31/kw570
==========
zscan inputs: 
z_sep:50000
z_range:200000 -5000000
data_path:/icon/data/2023_08_MoS2_5um_hbn_sub/
example_pos:-4024593.5778     -21664.235864          -1000000
N_dwell:200
sampling_period:15
make_plots:0
m1:0.98976
m2:-0.0073571
==========
Detector params:
Sampling period (ms): 15.000000
N dwell: 200.000000
Filament current (A): 1.540000
Filament emission (mA): 1.735992
Solenoid current (A): NaN
Solenoid shim current (A): NaN
Lens params:
0  685
1  300
2  125
3      -0.002
4       -0.01
5       0.012
6         0.8
7         2.1
8         2.8
9  3000
10  1450
11         0.85
12   0
==========
Data:
z(nm),I(A)
200000,4.1982e-11,
100000,4.2302e-11,
0,4.1558e-11,
-100000,4.2096e-11,
-200000,4.1915e-11,
-300000,4.1855e-11,
-400000,4.3711e-11,
-500000,4.2808e-11,
-600000,4.4466e-11,
-700000,4.3752e-11,
-800000,4.4623e-11,
-900000,4.6058e-11,
-1000000,4.6278e-11,
-1100000,4.7601e-11,
-1200000,4.679e-11,
-1300000,4.7034e-11,
-1400000,4.756e-11,
-1500000,4.8337e-11,
-1600000,4.8231e-11,
-1700000,4.8007e-11,
-1800000,4.8923e-11,
-1900000,4.7839e-11,
-2000000,4.688e-11,
-2100000,4.8674e-11,
-2200000,4.7933e-11,
-2300000,4.7759e-11,
-2400000,4.7586e-11,
-2500000,4.6476e-11,
-2600000,4.5585e-11,
-2700000,4.5562e-11,
-2800000,4.5242e-11,
-2900000,4.3813e-11,
-3000000,4.3877e-11,
-3100000,4.2723e-11,
-3200000,4.3297e-11,
-3300000,4.1354e-11,
-3400000,4.0857e-11,
-3500000,4.037e-11,
-3600000,4.0035e-11,
-3700000,3.889e-11,
-3800000,3.8092e-11,
-3900000,3.7383e-11,
-4000000,3.7438e-11,
-4100000,3.6082e-11,
-4200000,3.4759e-11,
-4300000,3.564e-11,
-4400000,3.376e-11,
-4500000,3.3646e-11,
-4600000,3.3499e-11,
-4700000,3.2542e-11,
-4800000,3.174e-11,
-4900000,3.2407e-11,
-5000000,3.0526e-11,
-4950000,3.0478e-11,
-4850000,3.1444e-11,
-4750000,3.2202e-11,
-4650000,3.2411e-11,
-4550000,3.3183e-11,
-4450000,3.371e-11,
-4350000,3.5654e-11,
-4250000,3.5637e-11,
-4150000,3.6629e-11,
-4050000,3.6208e-11,
-3950000,3.6666e-11,
-3850000,3.7401e-11,
-3750000,3.845e-11,
-3650000,3.9069e-11,
-3550000,4.0648e-11,
-3450000,4.0661e-11,
-3350000,4.0604e-11,
-3250000,4.2242e-11,
-3150000,4.2068e-11,
-3050000,4.3805e-11,
-2950000,4.6052e-11,
-2850000,4.3801e-11,
-2750000,4.5372e-11,
-2650000,4.6178e-11,
-2550000,4.633e-11,
-2450000,4.6752e-11,
-2350000,4.6871e-11,
-2250000,4.7732e-11,
-2150000,4.8422e-11,
-2050000,4.9061e-11,
-1950000,4.8538e-11,
-1850000,4.8453e-11,
-1750000,4.8754e-11,
-1650000,4.7839e-11,
-1550000,4.8617e-11,
-1450000,4.7498e-11,
-1350000,4.6679e-11,
-1250000,4.78e-11,
-1150000,4.5718e-11,
-1050000,4.7063e-11,
-950000,4.6155e-11,
-850000,4.4555e-11,
-750000,4.5758e-11,
-650000,4.4211e-11,
-550000,4.253e-11,
-450000,4.266e-11,
-350000,4.2432e-11,
-250000,4.147e-11,
-150000,4.1537e-11,
-50000,4.1604e-11,
50000,4.1322e-11,
150000,4.2817e-11,
