General parameters:
Start time: 2023              8             29              5             57       5.286109
Finish time: 2023              8             29              6              4       8.868275
Dwell time (ms): 3000.000000
Source chamber pressure: 2.00e+3
Differential chamber pressure: 6.03e-07
Sample chamber pressure: 3.52e-08
Example position (nm): -2894056.223045,223813.853785,-1000000.000000
Rotation angle (udeg): 127499995.000000
==========
Instrument status: 
0:Data Directory:/icon/data/2023_08_MoS2_5um_hbn_sub/
1:Sample:MoS2
2:Comments:no
3:PinholePlate:#C13
4:z_Zero:4200
5:Operator:djw77/nav31/kw570
==========
zscan inputs: 
z_sep:50000
z_range:200000 -6000000
data_path:/icon/data/2023_08_MoS2_5um_hbn_sub/
example_pos:-2894056.223      223813.85379          -1000000
N_dwell:200
sampling_period:15
make_plots:1
m1:0.98976
m2:-0.0073571
==========
Detector params:
Sampling period (ms): 15.000000
N dwell: 200.000000
Filament current (A): 1.540000
Filament emission (mA): 1.924434
Solenoid current (A): NaN
Solenoid shim current (A): NaN
Lens params:
0  685
1  300
2  125
3      -0.002
4       -0.01
5       0.012
6         0.8
7         2.1
8         2.8
9  3000
10  1450
11         0.85
12   0
==========
Data:
z(nm),I(A)
200000,6.1693e-11,
100000,6.1977e-11,
0,6.2733e-11,
-100000,6.3854e-11,
-200000,6.3938e-11,
-300000,6.4318e-11,
-400000,6.3433e-11,
-500000,6.4733e-11,
-600000,6.4419e-11,
-700000,6.5901e-11,
-800000,6.579e-11,
-900000,6.6781e-11,
-1000000,6.6381e-11,
-1100000,6.5828e-11,
-1200000,6.6904e-11,
-1300000,6.834e-11,
-1400000,6.7818e-11,
-1500000,6.7154e-11,
-1600000,6.5891e-11,
-1700000,6.7237e-11,
-1800000,6.7477e-11,
-1900000,6.6495e-11,
-2000000,6.7636e-11,
-2100000,6.6155e-11,
-2200000,6.515e-11,
-2300000,6.5323e-11,
-2400000,6.5168e-11,
-2500000,6.3842e-11,
-2600000,6.3297e-11,
-2700000,6.2778e-11,
-2800000,6.2121e-11,
-2900000,6.0132e-11,
-3000000,6.0323e-11,
-3100000,6.0132e-11,
-3200000,5.8546e-11,
-3300000,5.6912e-11,
-3400000,5.659e-11,
-3500000,5.5149e-11,
-3600000,5.4943e-11,
-3700000,5.3858e-11,
-3800000,5.2342e-11,
-3900000,5.2494e-11,
-4000000,4.9995e-11,
-4100000,5.1383e-11,
-4200000,4.924e-11,
-4300000,4.8455e-11,
-4400000,4.8191e-11,
-4500000,4.6576e-11,
-4600000,4.6379e-11,
-4700000,4.5337e-11,
-4800000,4.4127e-11,
-4900000,4.4e-11,
-5000000,4.3247e-11,
-5100000,4.1946e-11,
-5200000,4.1727e-11,
-5300000,4.1235e-11,
-5400000,3.9352e-11,
-5500000,4.0241e-11,
-5600000,3.9118e-11,
-5700000,3.8687e-11,
-5800000,3.8809e-11,
-5900000,3.8196e-11,
-6000000,3.7577e-11,
-5950000,3.7924e-11,
-5850000,3.8318e-11,
-5750000,3.9065e-11,
-5650000,3.9907e-11,
-5550000,3.9418e-11,
-5450000,4.0487e-11,
-5350000,4.0446e-11,
-5250000,4.056e-11,
-5150000,4.233e-11,
-5050000,4.2203e-11,
-4950000,4.233e-11,
-4850000,4.4022e-11,
-4750000,4.4709e-11,
-4650000,4.5412e-11,
-4550000,4.7013e-11,
-4450000,4.6715e-11,
-4350000,4.7649e-11,
-4250000,4.8311e-11,
-4150000,4.9784e-11,
-4050000,5.0163e-11,
-3950000,5.1478e-11,
-3850000,5.2032e-11,
-3750000,5.3467e-11,
-3650000,5.3857e-11,
-3550000,5.5188e-11,
-3450000,5.6224e-11,
-3350000,5.6713e-11,
-3250000,5.8017e-11,
-3150000,5.9221e-11,
-3050000,5.8576e-11,
-2950000,6.0397e-11,
-2850000,6.087e-11,
-2750000,6.1956e-11,
-2650000,6.2481e-11,
-2550000,6.4582e-11,
-2450000,6.3624e-11,
-2350000,6.4661e-11,
-2250000,6.5277e-11,
-2150000,6.5663e-11,
-2050000,6.6654e-11,
-1950000,6.5259e-11,
-1850000,6.6377e-11,
-1750000,6.6492e-11,
-1650000,6.6885e-11,
-1550000,6.6399e-11,
-1450000,6.7074e-11,
-1350000,6.7e-11,
-1250000,6.6391e-11,
-1150000,6.5419e-11,
-1050000,6.6061e-11,
-950000,6.6298e-11,
-850000,6.4807e-11,
-750000,6.4625e-11,
-650000,6.428e-11,
-550000,6.398e-11,
-450000,6.3624e-11,
-350000,6.4341e-11,
-250000,6.3442e-11,
-150000,6.3665e-11,
-50000,6.317e-11,
50000,6.2773e-11,
150000,6.2651e-11,
