General parameters:
Start time: 2023              8             29              2             44       1.171808
Finish time: 2023              8             29              2             51       4.616022
Dwell time (ms): 3000.000000
Source chamber pressure: 2.00e+3
Differential chamber pressure: 6.06e-07
Sample chamber pressure: 3.52e-08
Example position (nm): -3913200.000000,113700.000000,-1000000.000000
Rotation angle (udeg): 59999825.000000
==========
Instrument status: 
0:Data Directory:/icon/data/2023_08_MoS2_5um_hbn_sub/
1:Sample:MoS2
2:Comments:no
3:PinholePlate:#C13
4:z_Zero:4200
5:Operator:djw77/nav31/kw570
==========
zscan inputs: 
z_sep:50000
z_range:200000 -6000000
data_path:/icon/data/2023_08_MoS2_5um_hbn_sub/
example_pos:-3913200   113700 -1000000
N_dwell:200
sampling_period:15
make_plots:1
m1:0.98976
m2:-0.0073571
==========
Detector params:
Sampling period (ms): 15.000000
N dwell: 200.000000
Filament current (A): 1.540000
Filament emission (mA): 1.920330
Solenoid current (A): NaN
Solenoid shim current (A): NaN
Lens params:
0  685
1  300
2  125
3      -0.002
4       -0.01
5       0.012
6         0.8
7         2.1
8         2.8
9  3000
10  1450
11         0.85
12   0
==========
Data:
z(nm),I(A)
200000,5.3943e-11,
100000,5.5034e-11,
0,5.4803e-11,
-100000,5.4775e-11,
-200000,5.5299e-11,
-300000,5.5923e-11,
-400000,5.7114e-11,
-500000,5.8163e-11,
-600000,5.8463e-11,
-700000,5.7817e-11,
-800000,6.124e-11,
-900000,6.5368e-11,
-1000000,6.2694e-11,
-1100000,6.301e-11,
-1200000,6.1609e-11,
-1300000,6.1948e-11,
-1400000,6.3035e-11,
-1500000,6.5005e-11,
-1600000,6.429e-11,
-1700000,6.4697e-11,
-1800000,6.3606e-11,
-1900000,6.3721e-11,
-2000000,6.6338e-11,
-2100000,6.2593e-11,
-2200000,6.369e-11,
-2300000,6.2858e-11,
-2400000,6.2074e-11,
-2500000,6.2453e-11,
-2600000,6.3e-11,
-2700000,6.1641e-11,
-2800000,6.142e-11,
-2900000,5.9635e-11,
-3000000,5.8813e-11,
-3100000,5.6736e-11,
-3200000,5.7822e-11,
-3300000,5.9645e-11,
-3400000,5.7826e-11,
-3500000,5.3949e-11,
-3600000,5.2592e-11,
-3700000,5.0688e-11,
-3800000,5.0843e-11,
-3900000,4.976e-11,
-4000000,4.8456e-11,
-4100000,4.7078e-11,
-4200000,4.5844e-11,
-4300000,4.5462e-11,
-4400000,4.3541e-11,
-4500000,4.406e-11,
-4600000,4.2072e-11,
-4700000,4.2495e-11,
-4800000,3.9813e-11,
-4900000,4.0199e-11,
-5000000,3.9536e-11,
-5100000,3.8421e-11,
-5200000,3.8269e-11,
-5300000,3.7302e-11,
-5400000,3.3723e-11,
-5500000,3.2729e-11,
-5600000,3.1615e-11,
-5700000,3.1295e-11,
-5800000,3.1834e-11,
-5900000,3.2971e-11,
-6000000,3.2251e-11,
-5950000,3.275e-11,
-5850000,3.2873e-11,
-5750000,3.0732e-11,
-5650000,3.0712e-11,
-5550000,3.1788e-11,
-5450000,3.2543e-11,
-5350000,3.5103e-11,
-5250000,3.7187e-11,
-5150000,3.7738e-11,
-5050000,3.9413e-11,
-4950000,3.9243e-11,
-4850000,3.9131e-11,
-4750000,4.1027e-11,
-4650000,4.2164e-11,
-4550000,4.2647e-11,
-4450000,4.4277e-11,
-4350000,4.5158e-11,
-4250000,4.5869e-11,
-4150000,4.7168e-11,
-4050000,4.8753e-11,
-3950000,4.9821e-11,
-3850000,4.9202e-11,
-3750000,5.0939e-11,
-3650000,5.2652e-11,
-3550000,5.2825e-11,
-3450000,5.5664e-11,
-3350000,5.7528e-11,
-3250000,5.6685e-11,
-3150000,5.5585e-11,
-3050000,5.6577e-11,
-2950000,5.7142e-11,
-2850000,5.7678e-11,
-2750000,5.939e-11,
-2650000,6.1032e-11,
-2550000,6.1142e-11,
-2450000,6.1419e-11,
-2350000,6.2402e-11,
-2250000,6.1803e-11,
-2150000,6.2283e-11,
-2050000,6.2999e-11,
-1950000,6.2762e-11,
-1850000,6.2785e-11,
-1750000,6.2823e-11,
-1650000,6.3817e-11,
-1550000,6.1924e-11,
-1450000,6.1674e-11,
-1350000,6.2223e-11,
-1250000,6.4967e-11,
-1150000,6.5632e-11,
-1050000,6.4718e-11,
-950000,6.2503e-11,
-850000,6.1782e-11,
-750000,5.9211e-11,
-650000,6.0802e-11,
-550000,6.0076e-11,
-450000,5.975e-11,
-350000,5.8412e-11,
-250000,5.7055e-11,
-150000,5.6356e-11,
-50000,5.5242e-11,
50000,5.6352e-11,
150000,5.5022e-11,
