General parameters:
Start time: 2023              8             22              0             45      27.153142
Finish time: 2023              8             22              0             51      24.303794
Dwell time (ms): 3000.000000
Source chamber pressure: 2.00e+3
Differential chamber pressure: 7.98e-07
Sample chamber pressure: 3.78e-08
Example position (nm): -3871027.084709,138717.556962,-1000000.000000
Rotation angle (udeg): 59999910.000000
==========
Instrument status: 
0:Data Directory:/icon/data/2023_08_MoS2_5um_hbn_sub/
1:Sample:MoS2
2:Comments:no
3:PinholePlate:#C13
4:z_Zero:4200
5:Operator:djw77/nav31/kw570
==========
zscan inputs: 
z_sep:50000
z_range:200000 -5000000
data_path:/icon/data/2023_08_MoS2_5um_hbn_sub/
example_pos:-3871027.0847      138717.55696          -1000000
N_dwell:200
sampling_period:15
make_plots:0
m1:0.98976
m2:-0.0073571
==========
Detector params:
Sampling period (ms): 15.000000
N dwell: 200.000000
Filament current (A): 1.540000
Filament emission (mA): 1.748646
Solenoid current (A): NaN
Solenoid shim current (A): NaN
Lens params:
0  685
1  300
2  125
3      -0.002
4       -0.01
5       0.012
6         0.8
7         2.1
8         2.8
9  3000
10  1450
11         0.85
12   0
==========
Data:
z(nm),I(A)
200000,4.1132e-11,
100000,3.9892e-11,
0,3.94e-11,
-100000,3.9781e-11,
-200000,3.9837e-11,
-300000,4.0042e-11,
-400000,4.0777e-11,
-500000,4.114e-11,
-600000,4.1244e-11,
-700000,4.2557e-11,
-800000,4.3125e-11,
-900000,4.3291e-11,
-1000000,4.3029e-11,
-1100000,4.4268e-11,
-1200000,4.5224e-11,
-1300000,4.4989e-11,
-1400000,4.4155e-11,
-1500000,4.465e-11,
-1600000,4.6003e-11,
-1700000,4.6387e-11,
-1800000,4.5277e-11,
-1900000,4.6143e-11,
-2000000,4.5748e-11,
-2100000,4.6199e-11,
-2200000,4.5415e-11,
-2300000,4.5183e-11,
-2400000,4.4487e-11,
-2500000,4.4425e-11,
-2600000,4.3496e-11,
-2700000,4.216e-11,
-2800000,4.2762e-11,
-2900000,4.2703e-11,
-3000000,4.13e-11,
-3100000,4.1122e-11,
-3200000,3.995e-11,
-3300000,4.0263e-11,
-3400000,3.9661e-11,
-3500000,3.8981e-11,
-3600000,3.7833e-11,
-3700000,3.6274e-11,
-3800000,3.6212e-11,
-3900000,3.5683e-11,
-4000000,3.4784e-11,
-4100000,3.3552e-11,
-4200000,3.4337e-11,
-4300000,3.2822e-11,
-4400000,3.263e-11,
-4500000,3.1462e-11,
-4600000,3.1408e-11,
-4700000,3.0514e-11,
-4800000,2.9547e-11,
-4900000,3.0139e-11,
-5000000,2.8935e-11,
-4950000,2.959e-11,
-4850000,3.0716e-11,
-4750000,3.0214e-11,
-4650000,3.1111e-11,
-4550000,3.1283e-11,
-4450000,3.2312e-11,
-4350000,3.3686e-11,
-4250000,3.3393e-11,
-4150000,3.3179e-11,
-4050000,3.3799e-11,
-3950000,3.5325e-11,
-3850000,3.6029e-11,
-3750000,3.669e-11,
-3650000,3.7184e-11,
-3550000,3.7984e-11,
-3450000,3.8423e-11,
-3350000,3.958e-11,
-3250000,4.0426e-11,
-3150000,4.0661e-11,
-3050000,4.0429e-11,
-2950000,4.2465e-11,
-2850000,4.1856e-11,
-2750000,4.2989e-11,
-2650000,4.3911e-11,
-2550000,4.3895e-11,
-2450000,4.4363e-11,
-2350000,4.3944e-11,
-2250000,4.5146e-11,
-2150000,4.6037e-11,
-2050000,4.5677e-11,
-1950000,4.5739e-11,
-1850000,4.7419e-11,
-1750000,4.711e-11,
-1650000,4.5858e-11,
-1550000,4.5832e-11,
-1450000,4.4186e-11,
-1350000,4.6385e-11,
-1250000,4.4229e-11,
-1150000,4.3791e-11,
-1050000,4.4109e-11,
-950000,4.3222e-11,
-850000,4.4282e-11,
-750000,4.298e-11,
-650000,4.2449e-11,
-550000,4.2389e-11,
-450000,4.0418e-11,
-350000,4.0638e-11,
-250000,4.095e-11,
-150000,3.9258e-11,
-50000,3.9212e-11,
50000,3.8764e-11,
150000,3.9336e-11,
