General parameters:
Start time: 2023              8             22              2             22       8.010593
Finish time: 2023              8             22              2             28       4.738272
Dwell time (ms): 3000.000000
Source chamber pressure: 2.00e+3
Differential chamber pressure: 7.99e-07
Sample chamber pressure: 3.75e-08
Example position (nm): -3320049.619500,325680.587330,-1000000.000000
Rotation angle (udeg): 99999915.000000
==========
Instrument status: 
0:Data Directory:/icon/data/2023_08_MoS2_5um_hbn_sub/
1:Sample:MoS2
2:Comments:no
3:PinholePlate:#C13
4:z_Zero:4200
5:Operator:djw77/nav31/kw570
==========
zscan inputs: 
z_sep:50000
z_range:200000 -5000000
data_path:/icon/data/2023_08_MoS2_5um_hbn_sub/
example_pos:-3320049.6195      325680.58733          -1000000
N_dwell:200
sampling_period:15
make_plots:0
m1:0.98976
m2:-0.0073571
==========
Detector params:
Sampling period (ms): 15.000000
N dwell: 200.000000
Filament current (A): 1.540000
Filament emission (mA): 1.752066
Solenoid current (A): NaN
Solenoid shim current (A): NaN
Lens params:
0  685
1  300
2  125
3      -0.002
4       -0.01
5       0.012
6         0.8
7         2.1
8         2.8
9  3000
10  1450
11         0.85
12   0
==========
Data:
z(nm),I(A)
200000,4.6581e-11,
100000,4.7734e-11,
0,4.8168e-11,
-100000,5.0197e-11,
-200000,4.8876e-11,
-300000,4.9107e-11,
-400000,4.9637e-11,
-500000,5.2428e-11,
-600000,5.8269e-11,
-700000,7.3037e-11,
-800000,9.6071e-11,
-900000,1.0406e-10,
-1000000,1.1223e-10,
-1100000,9.9612e-11,
-1200000,8.0553e-11,
-1300000,6.6645e-11,
-1400000,5.8212e-11,
-1500000,5.5833e-11,
-1600000,5.6372e-11,
-1700000,5.5659e-11,
-1800000,5.3554e-11,
-1900000,5.1359e-11,
-2000000,4.8364e-11,
-2100000,4.6696e-11,
-2200000,4.6517e-11,
-2300000,4.8392e-11,
-2400000,4.9407e-11,
-2500000,5.2142e-11,
-2600000,5.09e-11,
-2700000,4.9273e-11,
-2800000,4.6181e-11,
-2900000,4.3825e-11,
-3000000,4.1227e-11,
-3100000,4.1304e-11,
-3200000,4.0561e-11,
-3300000,4.0435e-11,
-3400000,3.974e-11,
-3500000,3.953e-11,
-3600000,3.7767e-11,
-3700000,3.6979e-11,
-3800000,3.5445e-11,
-3900000,3.5685e-11,
-4000000,3.4483e-11,
-4100000,3.3636e-11,
-4200000,3.2391e-11,
-4300000,3.1919e-11,
-4400000,3.1554e-11,
-4500000,3.1428e-11,
-4600000,3.0141e-11,
-4700000,3.0347e-11,
-4800000,2.9319e-11,
-4900000,2.8609e-11,
-5000000,2.8495e-11,
-4950000,2.7998e-11,
-4850000,2.9319e-11,
-4750000,3.0027e-11,
-4650000,3.0797e-11,
-4550000,3.0804e-11,
-4450000,3.1622e-11,
-4350000,3.2034e-11,
-4250000,3.1503e-11,
-4150000,3.2896e-11,
-4050000,3.2332e-11,
-3950000,3.3732e-11,
-3850000,3.5124e-11,
-3750000,3.6761e-11,
-3650000,3.793e-11,
-3550000,3.8488e-11,
-3450000,3.9634e-11,
-3350000,4.0431e-11,
-3250000,4.1387e-11,
-3150000,4.0874e-11,
-3050000,4.1838e-11,
-2950000,4.3146e-11,
-2850000,4.5519e-11,
-2750000,4.8737e-11,
-2650000,5.102e-11,
-2550000,5.2113e-11,
-2450000,5.1452e-11,
-2350000,4.8474e-11,
-2250000,4.7618e-11,
-2150000,4.5808e-11,
-2050000,4.6088e-11,
-1950000,4.8732e-11,
-1850000,5.1236e-11,
-1750000,5.2838e-11,
-1650000,5.5338e-11,
-1550000,5.4908e-11,
-1450000,5.6355e-11,
-1350000,5.9382e-11,
-1250000,6.9758e-11,
-1150000,8.433e-11,
-1050000,1.0639e-10,
-950000,1.0343e-10,
-850000,1.0464e-10,
-750000,8.2198e-11,
-650000,6.6504e-11,
-550000,5.5497e-11,
-450000,5.0991e-11,
-350000,4.9285e-11,
-250000,4.86e-11,
-150000,4.9766e-11,
-50000,4.8743e-11,
50000,4.6948e-11,
150000,4.748e-11,
