General parameters:
Start time: 2023              8             18             16             24       5.151941
Finish time: 2023              8             18             16             30       2.548586
Dwell time (ms): 3000.000000
Source chamber pressure: 2.00e+3
Differential chamber pressure: 7.92e-07
Sample chamber pressure: 3.88e-08
Example position (nm): -3522829.747098,265394.280218,-1000000.000000
Rotation angle (udeg): 84999735.000000
==========
Instrument status: 
0:Data Directory:/icon/data/2023_08_MoS2_5um_hbn_sub/
1:Sample:MoS2
2:Comments:no
3:PinholePlate:#C13
4:z_Zero:4200
5:Operator:djw77/nav31/kw570
==========
zscan inputs: 
z_sep:50000
z_range:200000 -5000000
data_path:/icon/data/2023_08_MoS2_5um_hbn_sub/
example_pos:-3522829.7471      265394.28022          -1000000
N_dwell:200
sampling_period:15
make_plots:1
m1:0.98976
m2:-0.0073571
==========
Detector params:
Sampling period (ms): 15.000000
N dwell: 200.000000
Filament current (A): 1.540000
Filament emission (mA): 1.656990
Solenoid current (A): NaN
Solenoid shim current (A): NaN
Lens params:
0  685
1  300
2  125
3      -0.002
4       -0.01
5       0.012
6         0.8
7         2.1
8         2.8
9  3000
10  1450
11         0.85
12   0
==========
Data:
z(nm),I(A)
200000,3.869e-11,
100000,3.9152e-11,
0,3.8818e-11,
-100000,3.7259e-11,
-200000,3.6693e-11,
-300000,3.7427e-11,
-400000,3.7209e-11,
-500000,3.867e-11,
-600000,3.8399e-11,
-700000,3.928e-11,
-800000,3.8521e-11,
-900000,3.9721e-11,
-1000000,3.9987e-11,
-1100000,4.0293e-11,
-1200000,4.2348e-11,
-1300000,4.3438e-11,
-1400000,4.3137e-11,
-1500000,4.2878e-11,
-1600000,4.2767e-11,
-1700000,4.2469e-11,
-1800000,4.1453e-11,
-1900000,4.0726e-11,
-2000000,4.0683e-11,
-2100000,4.0572e-11,
-2200000,3.9992e-11,
-2300000,4.0741e-11,
-2400000,3.925e-11,
-2500000,3.9416e-11,
-2600000,3.8039e-11,
-2700000,3.802e-11,
-2800000,3.7639e-11,
-2900000,3.6407e-11,
-3000000,3.6636e-11,
-3100000,3.5972e-11,
-3200000,3.5674e-11,
-3300000,3.4891e-11,
-3400000,3.4402e-11,
-3500000,3.3714e-11,
-3600000,3.3584e-11,
-3700000,3.2833e-11,
-3800000,3.172e-11,
-3900000,3.1198e-11,
-4000000,3.0256e-11,
-4100000,2.9953e-11,
-4200000,2.964e-11,
-4300000,2.91e-11,
-4400000,2.7935e-11,
-4500000,2.7208e-11,
-4600000,2.7805e-11,
-4700000,2.6197e-11,
-4800000,2.6819e-11,
-4900000,2.6621e-11,
-5000000,2.6151e-11,
-4950000,2.5998e-11,
-4850000,2.6052e-11,
-4750000,2.6132e-11,
-4650000,2.6422e-11,
-4550000,2.7345e-11,
-4450000,2.7223e-11,
-4350000,2.8183e-11,
-4250000,2.893e-11,
-4150000,2.9551e-11,
-4050000,3.0483e-11,
-3950000,3.1104e-11,
-3850000,3.0658e-11,
-3750000,3.1989e-11,
-3650000,3.2677e-11,
-3550000,3.2461e-11,
-3450000,3.2871e-11,
-3350000,3.4738e-11,
-3250000,3.5076e-11,
-3150000,3.5267e-11,
-3050000,3.6382e-11,
-2950000,3.6622e-11,
-2850000,3.7148e-11,
-2750000,3.7901e-11,
-2650000,3.8487e-11,
-2550000,3.9141e-11,
-2450000,3.9416e-11,
-2350000,3.9827e-11,
-2250000,4.025e-11,
-2150000,4.0157e-11,
-2050000,4.069e-11,
-1950000,4.1717e-11,
-1850000,4.1713e-11,
-1750000,4.2354e-11,
-1650000,4.259e-11,
-1550000,4.3659e-11,
-1450000,4.4693e-11,
-1350000,4.5049e-11,
-1250000,4.5889e-11,
-1150000,4.3471e-11,
-1050000,4.2264e-11,
-950000,3.935e-11,
-850000,3.9286e-11,
-750000,4.1096e-11,
-650000,4.2094e-11,
-550000,3.9771e-11,
-450000,3.9511e-11,
-350000,3.874e-11,
-250000,3.9767e-11,
-150000,3.9973e-11,
-50000,4.1114e-11,
50000,4.3093e-11,
150000,4.3942e-11,
