General parameters:
Start time: 2023              8             19             17             28      39.973342
Finish time: 2023              8             19             17             34      37.167403
Dwell time (ms): 3000.000000
Source chamber pressure: 2.00e+3
Differential chamber pressure: 7.98e-07
Sample chamber pressure: 3.79e-08
Example position (nm): -2785264.383794,133483.797723,-1000000.000000
Rotation angle (udeg): 135000175.000000
==========
Instrument status: 
0:Data Directory:/icon/data/2023_08_MoS2_5um_hbn_sub/
1:Sample:MoS2
2:Comments:no
3:PinholePlate:#C13
4:z_Zero:4200
5:Operator:djw77/nav31/kw570
==========
zscan inputs: 
z_sep:50000
z_range:200000 -5000000
data_path:/icon/data/2023_08_MoS2_5um_hbn_sub/
example_pos:-2785264.3838      133483.79772          -1000000
N_dwell:200
sampling_period:15
make_plots:0
m1:0.98976
m2:-0.0073571
==========
Detector params:
Sampling period (ms): 15.000000
N dwell: 200.000000
Filament current (A): 1.540000
Filament emission (mA): 1.695636
Solenoid current (A): NaN
Solenoid shim current (A): NaN
Lens params:
0  685
1  300
2  125
3      -0.002
4       -0.01
5       0.012
6         0.8
7         2.1
8         2.8
9  3000
10  1450
11         0.85
12   0
==========
Data:
z(nm),I(A)
200000,4.5192e-11,
100000,4.5664e-11,
0,4.6537e-11,
-100000,4.6756e-11,
-200000,4.6754e-11,
-300000,4.6692e-11,
-400000,4.7155e-11,
-500000,4.6579e-11,
-600000,4.7149e-11,
-700000,4.7913e-11,
-800000,4.7668e-11,
-900000,4.7836e-11,
-1000000,4.7652e-11,
-1100000,4.7996e-11,
-1200000,4.7585e-11,
-1300000,4.7924e-11,
-1400000,4.8381e-11,
-1500000,4.8523e-11,
-1600000,4.8345e-11,
-1700000,4.7961e-11,
-1800000,4.8391e-11,
-1900000,4.9003e-11,
-2000000,4.748e-11,
-2100000,4.692e-11,
-2200000,4.6839e-11,
-2300000,4.7328e-11,
-2400000,4.5929e-11,
-2500000,4.6298e-11,
-2600000,4.4294e-11,
-2700000,4.405e-11,
-2800000,4.4468e-11,
-2900000,4.3271e-11,
-3000000,4.3121e-11,
-3100000,4.1754e-11,
-3200000,4.1727e-11,
-3300000,4.0844e-11,
-3400000,4.0856e-11,
-3500000,4.0168e-11,
-3600000,3.8763e-11,
-3700000,3.7797e-11,
-3800000,3.7785e-11,
-3900000,3.7665e-11,
-4000000,3.639e-11,
-4100000,3.5494e-11,
-4200000,3.4484e-11,
-4300000,3.4193e-11,
-4400000,3.3393e-11,
-4500000,3.2238e-11,
-4600000,3.2183e-11,
-4700000,3.1616e-11,
-4800000,3.0263e-11,
-4900000,3.0039e-11,
-5000000,2.9675e-11,
-4950000,2.9799e-11,
-4850000,3.0508e-11,
-4750000,3.0959e-11,
-4650000,3.2068e-11,
-4550000,3.2348e-11,
-4450000,3.3362e-11,
-4350000,3.3179e-11,
-4250000,3.4512e-11,
-4150000,3.57e-11,
-4050000,3.5516e-11,
-3950000,3.6508e-11,
-3850000,3.8174e-11,
-3750000,3.8091e-11,
-3650000,3.8599e-11,
-3550000,3.8471e-11,
-3450000,4.038e-11,
-3350000,4.0756e-11,
-3250000,4.0939e-11,
-3150000,4.2219e-11,
-3050000,4.3481e-11,
-2950000,4.3114e-11,
-2850000,4.4129e-11,
-2750000,4.5005e-11,
-2650000,4.5329e-11,
-2550000,4.511e-11,
-2450000,4.5235e-11,
-2350000,4.607e-11,
-2250000,4.7026e-11,
-2150000,4.7331e-11,
-2050000,4.722e-11,
-1950000,4.731e-11,
-1850000,4.8377e-11,
-1750000,4.812e-11,
-1650000,4.7777e-11,
-1550000,4.8163e-11,
-1450000,4.8826e-11,
-1350000,4.7857e-11,
-1250000,4.8036e-11,
-1150000,4.7296e-11,
-1050000,4.7179e-11,
-950000,4.9237e-11,
-850000,4.8249e-11,
-750000,4.9156e-11,
-650000,4.7635e-11,
-550000,4.6208e-11,
-450000,4.6133e-11,
-350000,4.6735e-11,
-250000,4.6888e-11,
-150000,4.5657e-11,
-50000,4.5868e-11,
50000,4.6275e-11,
150000,4.6265e-11,
