General parameters:
Start time: 2023              8             21             21             57       35.14352
Finish time: 2023              8             21             22              3      30.344142
Dwell time (ms): 3000.000000
Source chamber pressure: 2.00e+3
Differential chamber pressure: 7.97e-07
Sample chamber pressure: 3.83e-08
Example position (nm): -3504547.754009,309559.853098,-1000000.000000
Rotation angle (udeg): 87499845.000000
==========
Instrument status: 
0:Data Directory:/icon/data/2023_08_MoS2_5um_hbn_sub/
1:Sample:MoS2
2:Comments:no
3:PinholePlate:#C13
4:z_Zero:4200
5:Operator:djw77/nav31/kw570
==========
zscan inputs: 
z_sep:50000
z_range:200000 -5000000
data_path:/icon/data/2023_08_MoS2_5um_hbn_sub/
example_pos:-3504547.754       309559.8531          -1000000
N_dwell:200
sampling_period:15
make_plots:0
m1:0.98976
m2:-0.0073571
==========
Detector params:
Sampling period (ms): 15.000000
N dwell: 200.000000
Filament current (A): 1.540000
Filament emission (mA): 1.738728
Solenoid current (A): NaN
Solenoid shim current (A): NaN
Lens params:
0  685
1  300
2  125
3      -0.002
4       -0.01
5       0.012
6         0.8
7         2.1
8         2.8
9  3000
10  1450
11         0.85
12   0
==========
Data:
z(nm),I(A)
200000,7.7225e-11,
100000,7.1958e-11,
0,6.8131e-11,
-100000,7.0081e-11,
-200000,6.8268e-11,
-300000,6.5171e-11,
-400000,6.2362e-11,
-500000,6.402e-11,
-600000,7.0368e-11,
-700000,8.1197e-11,
-800000,1.0868e-10,
-900000,1.4645e-10,
-1000000,1.5557e-10,
-1100000,1.3896e-10,
-1200000,1.0364e-10,
-1300000,8.3832e-11,
-1400000,7.4173e-11,
-1500000,6.7987e-11,
-1600000,6.6118e-11,
-1700000,6.1993e-11,
-1800000,6.0317e-11,
-1900000,5.776e-11,
-2000000,5.6193e-11,
-2100000,5.4412e-11,
-2200000,5.7114e-11,
-2300000,6.0261e-11,
-2400000,6.4438e-11,
-2500000,6.6594e-11,
-2600000,6.5839e-11,
-2700000,6.1326e-11,
-2800000,5.4258e-11,
-2900000,4.9484e-11,
-3000000,4.5924e-11,
-3100000,4.4481e-11,
-3200000,4.552e-11,
-3300000,4.6287e-11,
-3400000,4.9554e-11,
-3500000,5.0219e-11,
-3600000,4.9715e-11,
-3700000,4.6859e-11,
-3800000,4.3962e-11,
-3900000,3.9818e-11,
-4000000,3.6283e-11,
-4100000,3.2993e-11,
-4200000,3.1366e-11,
-4300000,3.1172e-11,
-4400000,2.9965e-11,
-4500000,2.8946e-11,
-4600000,2.9117e-11,
-4700000,2.8288e-11,
-4800000,2.6954e-11,
-4900000,2.6595e-11,
-5000000,2.5746e-11,
-4950000,2.657e-11,
-4850000,2.7539e-11,
-4750000,2.8137e-11,
-4650000,2.8193e-11,
-4550000,2.8562e-11,
-4450000,2.9916e-11,
-4350000,3.0923e-11,
-4250000,3.1041e-11,
-4150000,3.2225e-11,
-4050000,3.4331e-11,
-3950000,3.758e-11,
-3850000,4.0183e-11,
-3750000,4.4304e-11,
-3650000,4.8589e-11,
-3550000,4.9177e-11,
-3450000,4.852e-11,
-3350000,4.8689e-11,
-3250000,4.5328e-11,
-3150000,4.4905e-11,
-3050000,4.5556e-11,
-2950000,4.6311e-11,
-2850000,4.9844e-11,
-2750000,5.4712e-11,
-2650000,6.2312e-11,
-2550000,6.5283e-11,
-2450000,6.5393e-11,
-2350000,6.3654e-11,
-2250000,5.7465e-11,
-2150000,5.5602e-11,
-2050000,5.3111e-11,
-1950000,5.4726e-11,
-1850000,5.6037e-11,
-1750000,5.7849e-11,
-1650000,5.9479e-11,
-1550000,6.4535e-11,
-1450000,6.8613e-11,
-1350000,7.6717e-11,
-1250000,8.9188e-11,
-1150000,1.1769e-10,
-1050000,1.4701e-10,
-950000,1.597e-10,
-850000,1.3395e-10,
-750000,9.4786e-11,
-650000,7.5355e-11,
-550000,6.5556e-11,
-450000,6.0353e-11,
-350000,6.0815e-11,
-250000,6.4584e-11,
-150000,6.8403e-11,
-50000,6.9253e-11,
50000,6.9232e-11,
150000,7.4437e-11,
