General parameters:
Start time: 2023              8             23             12             29       8.743316
Finish time: 2023              8             23             12             35       4.942306
Dwell time (ms): 3000.000000
Source chamber pressure: 2.00e+3
Differential chamber pressure: 7.73e-07
Sample chamber pressure: 3.79e-08
Example position (nm): -3979673.178845,34915.550178,-1000000.000000
Rotation angle (udeg): 50000145.000000
==========
Instrument status: 
0:Data Directory:/icon/data/2023_08_MoS2_5um_hbn_sub/
1:Sample:MoS2
2:Comments:no
3:PinholePlate:#C13
4:z_Zero:4200
5:Operator:djw77/nav31/kw570
==========
zscan inputs: 
z_sep:50000
z_range:200000 -5000000
data_path:/icon/data/2023_08_MoS2_5um_hbn_sub/
example_pos:-3979673.1788      34915.550178          -1000000
N_dwell:200
sampling_period:15
make_plots:1
m1:0.98976
m2:-0.0073571
==========
Detector params:
Sampling period (ms): 15.000000
N dwell: 200.000000
Filament current (A): 1.540000
Filament emission (mA): 1.783872
Solenoid current (A): NaN
Solenoid shim current (A): NaN
Lens params:
0  685
1  300
2  125
3      -0.002
4       -0.01
5       0.012
6         0.8
7         2.1
8         2.8
9  3000
10  1450
11         0.85
12   0
==========
Data:
z(nm),I(A)
200000,3.3469e-11,
100000,3.37e-11,
0,3.3255e-11,
-100000,3.3511e-11,
-200000,3.4025e-11,
-300000,3.3931e-11,
-400000,3.4589e-11,
-500000,3.4145e-11,
-600000,3.5557e-11,
-700000,3.6359e-11,
-800000,3.6287e-11,
-900000,3.6651e-11,
-1000000,3.7689e-11,
-1100000,3.7755e-11,
-1200000,3.8786e-11,
-1300000,3.8227e-11,
-1400000,3.9409e-11,
-1500000,4.0621e-11,
-1600000,3.9141e-11,
-1700000,3.8711e-11,
-1800000,3.9216e-11,
-1900000,3.9887e-11,
-2000000,3.9564e-11,
-2100000,3.8396e-11,
-2200000,3.9387e-11,
-2300000,3.9017e-11,
-2400000,3.8677e-11,
-2500000,3.6786e-11,
-2600000,3.7409e-11,
-2700000,3.7268e-11,
-2800000,3.6299e-11,
-2900000,3.5424e-11,
-3000000,3.5329e-11,
-3100000,3.4151e-11,
-3200000,3.359e-11,
-3300000,3.3637e-11,
-3400000,3.3695e-11,
-3500000,3.2485e-11,
-3600000,3.2376e-11,
-3700000,3.195e-11,
-3800000,3.0941e-11,
-3900000,2.9964e-11,
-4000000,3.0248e-11,
-4100000,2.9772e-11,
-4200000,2.826e-11,
-4300000,2.764e-11,
-4400000,2.8412e-11,
-4500000,2.6476e-11,
-4600000,2.6243e-11,
-4700000,2.5904e-11,
-4800000,2.572e-11,
-4900000,2.5194e-11,
-5000000,2.4516e-11,
-4950000,2.5383e-11,
-4850000,2.4952e-11,
-4750000,2.5367e-11,
-4650000,2.6526e-11,
-4550000,2.6801e-11,
-4450000,2.8199e-11,
-4350000,2.7474e-11,
-4250000,2.8338e-11,
-4150000,2.9009e-11,
-4050000,3.084e-11,
-3950000,3.019e-11,
-3850000,3.0932e-11,
-3750000,3.0967e-11,
-3650000,3.1839e-11,
-3550000,3.2152e-11,
-3450000,3.2817e-11,
-3350000,3.3279e-11,
-3250000,3.3814e-11,
-3150000,3.4464e-11,
-3050000,3.5742e-11,
-2950000,3.5671e-11,
-2850000,3.6326e-11,
-2750000,3.6461e-11,
-2650000,3.7935e-11,
-2550000,3.8183e-11,
-2450000,3.7854e-11,
-2350000,3.8955e-11,
-2250000,3.8837e-11,
-2150000,3.9379e-11,
-2050000,4.0386e-11,
-1950000,3.96e-11,
-1850000,3.9348e-11,
-1750000,3.9156e-11,
-1650000,4.0377e-11,
-1550000,3.9407e-11,
-1450000,4.0092e-11,
-1350000,3.8813e-11,
-1250000,3.8489e-11,
-1150000,3.7928e-11,
-1050000,3.7289e-11,
-950000,3.7912e-11,
-850000,3.7731e-11,
-750000,3.6722e-11,
-650000,3.6e-11,
-550000,3.6534e-11,
-450000,3.4673e-11,
-350000,3.4249e-11,
-250000,3.4375e-11,
-150000,3.3371e-11,
-50000,3.2889e-11,
50000,3.3525e-11,
150000,3.3738e-11,
