General parameters:
Start time: 2023              8             18             16             30       7.804584
Finish time: 2023              8             18             16             36       6.773517
Dwell time (ms): 3000.000000
Source chamber pressure: 2.00e+3
Differential chamber pressure: 7.93e-07
Sample chamber pressure: 3.87e-08
Example position (nm): -3445000.000000,281000.000000,-1000000.000000
Rotation angle (udeg): 90000165.000000
==========
Instrument status: 
0:Data Directory:/icon/data/2023_08_MoS2_5um_hbn_sub/
1:Sample:MoS2
2:Comments:no
3:PinholePlate:#C13
4:z_Zero:4200
5:Operator:djw77/nav31/kw570
==========
zscan inputs: 
z_sep:50000
z_range:200000 -5000000
data_path:/icon/data/2023_08_MoS2_5um_hbn_sub/
example_pos:-3445000   281000 -1000000
N_dwell:200
sampling_period:15
make_plots:1
m1:0.98976
m2:-0.0073571
==========
Detector params:
Sampling period (ms): 15.000000
N dwell: 200.000000
Filament current (A): 1.540000
Filament emission (mA): 1.656306
Solenoid current (A): NaN
Solenoid shim current (A): NaN
Lens params:
0  685
1  300
2  125
3      -0.002
4       -0.01
5       0.012
6         0.8
7         2.1
8         2.8
9  3000
10  1450
11         0.85
12   0
==========
Data:
z(nm),I(A)
200000,4.154e-11,
100000,4.2785e-11,
0,4.1484e-11,
-100000,4.0135e-11,
-200000,4.1761e-11,
-300000,4.0343e-11,
-400000,3.9879e-11,
-500000,4.1056e-11,
-600000,4.1453e-11,
-700000,4.454e-11,
-800000,4.1676e-11,
-900000,3.9896e-11,
-1000000,4.3089e-11,
-1100000,4.5691e-11,
-1200000,4.5733e-11,
-1300000,4.9528e-11,
-1400000,4.7934e-11,
-1500000,4.6034e-11,
-1600000,4.6488e-11,
-1700000,4.4766e-11,
-1800000,4.3281e-11,
-1900000,4.1822e-11,
-2000000,4.0798e-11,
-2100000,4.1682e-11,
-2200000,4.1155e-11,
-2300000,4.0284e-11,
-2400000,3.9492e-11,
-2500000,4.0873e-11,
-2600000,3.9767e-11,
-2700000,3.8688e-11,
-2800000,3.7982e-11,
-2900000,3.7859e-11,
-3000000,3.7191e-11,
-3100000,3.5816e-11,
-3200000,3.5718e-11,
-3300000,3.5142e-11,
-3400000,3.4323e-11,
-3500000,3.348e-11,
-3600000,3.2935e-11,
-3700000,3.1694e-11,
-3800000,3.2027e-11,
-3900000,3.1102e-11,
-4000000,3.104e-11,
-4100000,3.0396e-11,
-4200000,2.9151e-11,
-4300000,2.9304e-11,
-4400000,2.7756e-11,
-4500000,2.8006e-11,
-4600000,2.7433e-11,
-4700000,2.703e-11,
-4800000,2.6539e-11,
-4900000,2.5726e-11,
-5000000,2.5721e-11,
-4950000,2.5582e-11,
-4850000,2.6057e-11,
-4750000,2.6103e-11,
-4650000,2.8022e-11,
-4550000,2.7227e-11,
-4450000,2.8632e-11,
-4350000,2.8641e-11,
-4250000,2.8983e-11,
-4150000,2.9828e-11,
-4050000,2.9896e-11,
-3950000,3.1337e-11,
-3850000,3.1758e-11,
-3750000,3.2597e-11,
-3650000,3.2555e-11,
-3550000,3.3715e-11,
-3450000,3.4393e-11,
-3350000,3.4549e-11,
-3250000,3.5417e-11,
-3150000,3.5474e-11,
-3050000,3.7299e-11,
-2950000,3.6623e-11,
-2850000,3.7849e-11,
-2750000,3.9057e-11,
-2650000,3.8623e-11,
-2550000,3.9365e-11,
-2450000,4.0453e-11,
-2350000,4.05e-11,
-2250000,4.0353e-11,
-2150000,4.0604e-11,
-2050000,4.0473e-11,
-1950000,4.0792e-11,
-1850000,4.263e-11,
-1750000,4.3817e-11,
-1650000,4.4983e-11,
-1550000,4.5488e-11,
-1450000,4.4957e-11,
-1350000,4.597e-11,
-1250000,4.6136e-11,
-1150000,4.3353e-11,
-1050000,4.3414e-11,
-950000,4.1756e-11,
-850000,4.0439e-11,
-750000,4.2121e-11,
-650000,4.2678e-11,
-550000,4.1206e-11,
-450000,3.9231e-11,
-350000,4.0099e-11,
-250000,4.0942e-11,
-150000,4.1834e-11,
-50000,4.1749e-11,
50000,4.2637e-11,
150000,4.2332e-11,
