General parameters:
Start time: 2023              8             18             14             48       48.39235
Finish time: 2023              8             18             14             54      47.281655
Dwell time (ms): 3000.000000
Source chamber pressure: 2.00e+3
Differential chamber pressure: 7.88e-07
Sample chamber pressure: 3.84e-08
Example position (nm): -2839249.200110,192026.102580,-1000000.000000
Rotation angle (udeg): 130000025.000000
==========
Instrument status: 
0:Data Directory:/icon/data/2023_08_MoS2_5um_hbn_sub/
1:Sample:MoS2
2:Comments:no
3:PinholePlate:#C13
4:z_Zero:4200
5:Operator:djw77/nav31/kw570
==========
zscan inputs: 
z_sep:50000
z_range:200000 -5000000
data_path:/icon/data/2023_08_MoS2_5um_hbn_sub/
example_pos:-2839249.2001      192026.10258          -1000000
N_dwell:200
sampling_period:15
make_plots:1
m1:0.98976
m2:-0.0073571
==========
Detector params:
Sampling period (ms): 15.000000
N dwell: 200.000000
Filament current (A): 1.540000
Filament emission (mA): 1.663146
Solenoid current (A): NaN
Solenoid shim current (A): NaN
Lens params:
0  685
1  300
2  125
3      -0.002
4       -0.01
5       0.012
6         0.8
7         2.1
8         2.8
9  3000
10  1450
11         0.85
12   0
==========
Data:
z(nm),I(A)
200000,5.8115e-11,
100000,5.6145e-11,
0,5.2442e-11,
-100000,4.948e-11,
-200000,4.7356e-11,
-300000,4.6671e-11,
-400000,4.7033e-11,
-500000,5.2093e-11,
-600000,5.8187e-11,
-700000,7.3611e-11,
-800000,9.3046e-11,
-900000,9.2977e-11,
-1000000,7.7212e-11,
-1100000,6.0801e-11,
-1200000,5.2717e-11,
-1300000,4.8215e-11,
-1400000,4.8409e-11,
-1500000,5.2966e-11,
-1600000,5.7618e-11,
-1700000,6.3868e-11,
-1800000,6.4181e-11,
-1900000,5.7005e-11,
-2000000,4.9569e-11,
-2100000,4.5619e-11,
-2200000,4.5362e-11,
-2300000,4.6374e-11,
-2400000,5.2225e-11,
-2500000,5.7718e-11,
-2600000,6.4153e-11,
-2700000,6.9068e-11,
-2800000,6.5501e-11,
-2900000,5.8417e-11,
-3000000,4.9933e-11,
-3100000,4.4889e-11,
-3200000,4.1304e-11,
-3300000,3.8988e-11,
-3400000,3.9214e-11,
-3500000,4.0038e-11,
-3600000,4.0669e-11,
-3700000,4.1267e-11,
-3800000,4.2283e-11,
-3900000,4.0344e-11,
-4000000,3.5537e-11,
-4100000,3.3914e-11,
-4200000,3.1789e-11,
-4300000,3.0448e-11,
-4400000,2.9265e-11,
-4500000,2.8613e-11,
-4600000,2.6978e-11,
-4700000,2.7703e-11,
-4800000,2.5837e-11,
-4900000,2.5393e-11,
-5000000,2.4881e-11,
-4950000,2.5501e-11,
-4850000,2.5729e-11,
-4750000,2.5502e-11,
-4650000,2.6379e-11,
-4550000,2.6698e-11,
-4450000,2.8256e-11,
-4350000,2.8675e-11,
-4250000,3.0929e-11,
-4150000,3.2757e-11,
-4050000,3.4869e-11,
-3950000,3.6497e-11,
-3850000,3.9931e-11,
-3750000,4.1088e-11,
-3650000,4.1036e-11,
-3550000,3.898e-11,
-3450000,3.9108e-11,
-3350000,3.8663e-11,
-3250000,4.0411e-11,
-3150000,4.1826e-11,
-3050000,4.6597e-11,
-2950000,5.323e-11,
-2850000,6.1496e-11,
-2750000,6.7994e-11,
-2650000,6.8134e-11,
-2550000,6.2424e-11,
-2450000,5.6097e-11,
-2350000,5.0519e-11,
-2250000,4.6473e-11,
-2150000,4.5334e-11,
-2050000,4.7838e-11,
-1950000,5.4003e-11,
-1850000,6.1702e-11,
-1750000,6.5859e-11,
-1650000,6.2523e-11,
-1550000,5.6724e-11,
-1450000,5.0932e-11,
-1350000,4.9387e-11,
-1250000,4.9082e-11,
-1150000,5.6854e-11,
-1050000,6.7244e-11,
-950000,8.533e-11,
-850000,9.4058e-11,
-750000,8.8214e-11,
-650000,6.6113e-11,
-550000,5.515e-11,
-450000,4.8905e-11,
-350000,4.6862e-11,
-250000,4.6512e-11,
-150000,4.8903e-11,
-50000,5.0237e-11,
50000,5.297e-11,
150000,5.5992e-11,
