General parameters:
Start time: 2023              8             18             19              2      58.813089
Finish time: 2023              8             18             19              8      57.547117
Dwell time (ms): 3000.000000
Source chamber pressure: 2.00e+3
Differential chamber pressure: 7.95e-07
Sample chamber pressure: 3.84e-08
Example position (nm): -3326447.892195,291555.636534,-1000000.000000
Rotation angle (udeg): 97499680.000000
==========
Instrument status: 
0:Data Directory:/icon/data/2023_08_MoS2_5um_hbn_sub/
1:Sample:MoS2
2:Comments:no
3:PinholePlate:#C13
4:z_Zero:4200
5:Operator:djw77/nav31/kw570
==========
zscan inputs: 
z_sep:50000
z_range:200000 -5000000
data_path:/icon/data/2023_08_MoS2_5um_hbn_sub/
example_pos:-3326447.8922      291555.63653          -1000000
N_dwell:200
sampling_period:15
make_plots:0
m1:0.98976
m2:-0.0073571
==========
Detector params:
Sampling period (ms): 15.000000
N dwell: 200.000000
Filament current (A): 1.540000
Filament emission (mA): 1.667250
Solenoid current (A): NaN
Solenoid shim current (A): NaN
Lens params:
0  685
1  300
2  125
3      -0.002
4       -0.01
5       0.012
6         0.8
7         2.1
8         2.8
9  3000
10  1450
11         0.85
12   0
==========
Data:
z(nm),I(A)
200000,3.8228e-11,
100000,3.9254e-11,
0,3.8947e-11,
-100000,4.0234e-11,
-200000,3.903e-11,
-300000,3.9787e-11,
-400000,3.9562e-11,
-500000,3.953e-11,
-600000,3.9452e-11,
-700000,4.082e-11,
-800000,4.1246e-11,
-900000,4.1311e-11,
-1000000,4.1607e-11,
-1100000,4.2757e-11,
-1200000,4.273e-11,
-1300000,4.2727e-11,
-1400000,4.3083e-11,
-1500000,4.2606e-11,
-1600000,4.3332e-11,
-1700000,4.2859e-11,
-1800000,4.1904e-11,
-1900000,4.1441e-11,
-2000000,4.2296e-11,
-2100000,4.139e-11,
-2200000,4.1978e-11,
-2300000,4.1896e-11,
-2400000,4.1047e-11,
-2500000,4.0864e-11,
-2600000,4.057e-11,
-2700000,3.998e-11,
-2800000,3.9581e-11,
-2900000,3.7833e-11,
-3000000,3.8846e-11,
-3100000,3.7393e-11,
-3200000,3.6337e-11,
-3300000,3.6183e-11,
-3400000,3.5032e-11,
-3500000,3.51e-11,
-3600000,3.4526e-11,
-3700000,3.4379e-11,
-3800000,3.2055e-11,
-3900000,3.2541e-11,
-4000000,3.0428e-11,
-4100000,3.0104e-11,
-4200000,3.0757e-11,
-4300000,2.9627e-11,
-4400000,2.9146e-11,
-4500000,2.9249e-11,
-4600000,2.7991e-11,
-4700000,2.735e-11,
-4800000,2.8632e-11,
-4900000,2.6234e-11,
-5000000,2.5989e-11,
-4950000,2.5733e-11,
-4850000,2.6675e-11,
-4750000,2.7364e-11,
-4650000,2.8677e-11,
-4550000,2.8177e-11,
-4450000,2.9404e-11,
-4350000,2.9324e-11,
-4250000,2.9636e-11,
-4150000,3.0714e-11,
-4050000,3.124e-11,
-3950000,3.2053e-11,
-3850000,3.2944e-11,
-3750000,3.2506e-11,
-3650000,3.4081e-11,
-3550000,3.4169e-11,
-3450000,3.5644e-11,
-3350000,3.6307e-11,
-3250000,3.5955e-11,
-3150000,3.6348e-11,
-3050000,3.7326e-11,
-2950000,3.8044e-11,
-2850000,3.7818e-11,
-2750000,3.9647e-11,
-2650000,3.9746e-11,
-2550000,4.0256e-11,
-2450000,4.1324e-11,
-2350000,4.1633e-11,
-2250000,4.0162e-11,
-2150000,4.1599e-11,
-2050000,4.1455e-11,
-1950000,4.2669e-11,
-1850000,4.246e-11,
-1750000,4.232e-11,
-1650000,4.1735e-11,
-1550000,4.1989e-11,
-1450000,4.3009e-11,
-1350000,4.2283e-11,
-1250000,4.2987e-11,
-1150000,4.1158e-11,
-1050000,4.1706e-11,
-950000,4.2276e-11,
-850000,4.1451e-11,
-750000,4.101e-11,
-650000,4.1411e-11,
-550000,3.9444e-11,
-450000,3.9236e-11,
-350000,3.9159e-11,
-250000,4.0109e-11,
-150000,3.8603e-11,
-50000,3.8309e-11,
50000,3.8238e-11,
150000,3.8284e-11,
