General parameters:
Start time: 2023              8             22             13             30      36.280878
Finish time: 2023              8             22             13             36      30.585901
Dwell time (ms): 3000.000000
Source chamber pressure: 2.00e+3
Differential chamber pressure: 7.98e-07
Sample chamber pressure: 3.84e-08
Example position (nm): -3146029.763316,242362.422425,-1000000.000000
Rotation angle (udeg): 110000120.000000
==========
Instrument status: 
0:Data Directory:/icon/data/2023_08_MoS2_5um_hbn_sub/
1:Sample:MoS2
2:Comments:no
3:PinholePlate:#C13
4:z_Zero:4200
5:Operator:djw77/nav31/kw570
==========
zscan inputs: 
z_sep:50000
z_range:200000 -5000000
data_path:/icon/data/2023_08_MoS2_5um_hbn_sub/
example_pos:-3146029.7633      242362.42242          -1000000
N_dwell:200
sampling_period:15
make_plots:0
m1:0.98976
m2:-0.0073571
==========
Detector params:
Sampling period (ms): 15.000000
N dwell: 200.000000
Filament current (A): 1.540000
Filament emission (mA): 1.739070
Solenoid current (A): NaN
Solenoid shim current (A): NaN
Lens params:
0  685
1  300
2  125
3      -0.002
4       -0.01
5       0.012
6         0.8
7         2.1
8         2.8
9  3000
10  1450
11         0.85
12   0
==========
Data:
z(nm),I(A)
200000,4.4761e-11,
100000,4.4959e-11,
0,4.5228e-11,
-100000,4.5419e-11,
-200000,4.606e-11,
-300000,4.5931e-11,
-400000,4.6151e-11,
-500000,4.5959e-11,
-600000,4.651e-11,
-700000,4.7389e-11,
-800000,4.7067e-11,
-900000,4.6738e-11,
-1000000,4.7442e-11,
-1100000,4.7461e-11,
-1200000,4.7189e-11,
-1300000,4.7933e-11,
-1400000,4.906e-11,
-1500000,5.0431e-11,
-1600000,4.8492e-11,
-1700000,4.9112e-11,
-1800000,4.891e-11,
-1900000,4.8121e-11,
-2000000,4.7473e-11,
-2100000,4.7758e-11,
-2200000,4.7976e-11,
-2300000,4.6984e-11,
-2400000,4.6713e-11,
-2500000,4.5977e-11,
-2600000,4.5526e-11,
-2700000,4.4667e-11,
-2800000,4.4466e-11,
-2900000,4.4549e-11,
-3000000,4.3856e-11,
-3100000,4.2408e-11,
-3200000,4.3076e-11,
-3300000,4.174e-11,
-3400000,4.0459e-11,
-3500000,3.9342e-11,
-3600000,3.9311e-11,
-3700000,3.839e-11,
-3800000,3.7944e-11,
-3900000,3.7308e-11,
-4000000,3.7225e-11,
-4100000,3.6326e-11,
-4200000,3.5096e-11,
-4300000,3.4439e-11,
-4400000,3.3989e-11,
-4500000,3.3717e-11,
-4600000,3.2633e-11,
-4700000,3.2766e-11,
-4800000,3.2199e-11,
-4900000,3.1227e-11,
-5000000,3.0299e-11,
-4950000,3.0478e-11,
-4850000,3.1508e-11,
-4750000,3.174e-11,
-4650000,3.2746e-11,
-4550000,3.2746e-11,
-4450000,3.3428e-11,
-4350000,3.4555e-11,
-4250000,3.5299e-11,
-4150000,3.6427e-11,
-4050000,3.5679e-11,
-3950000,3.6828e-11,
-3850000,3.7774e-11,
-3750000,3.8251e-11,
-3650000,3.9118e-11,
-3550000,3.9692e-11,
-3450000,4.0997e-11,
-3350000,4.1242e-11,
-3250000,4.197e-11,
-3150000,4.2354e-11,
-3050000,4.355e-11,
-2950000,4.3691e-11,
-2850000,4.4967e-11,
-2750000,4.5648e-11,
-2650000,4.5853e-11,
-2550000,4.5374e-11,
-2450000,4.6627e-11,
-2350000,4.7166e-11,
-2250000,4.6905e-11,
-2150000,4.8012e-11,
-2050000,4.8185e-11,
-1950000,4.7005e-11,
-1850000,4.861e-11,
-1750000,4.8391e-11,
-1650000,4.8426e-11,
-1550000,4.8761e-11,
-1450000,4.7735e-11,
-1350000,4.8393e-11,
-1250000,4.8638e-11,
-1150000,4.7939e-11,
-1050000,4.7072e-11,
-950000,4.7798e-11,
-850000,4.7376e-11,
-750000,4.8366e-11,
-650000,4.6985e-11,
-550000,4.6603e-11,
-450000,4.6252e-11,
-350000,4.5889e-11,
-250000,4.5959e-11,
-150000,4.4933e-11,
-50000,4.4803e-11,
50000,4.5167e-11,
150000,4.5047e-11,
