General parameters:
Start time: 2023              8             18             18             20      43.710669
Finish time: 2023              8             18             18             26      40.932254
Dwell time (ms): 3000.000000
Source chamber pressure: 2.00e+3
Differential chamber pressure: 7.95e-07
Sample chamber pressure: 3.83e-08
Example position (nm): -3599003.200411,243064.635495,-1000000.000000
Rotation angle (udeg): 79999890.000000
==========
Instrument status: 
0:Data Directory:/icon/data/2023_08_MoS2_5um_hbn_sub/
1:Sample:MoS2
2:Comments:no
3:PinholePlate:#C13
4:z_Zero:4200
5:Operator:djw77/nav31/kw570
==========
zscan inputs: 
z_sep:50000
z_range:200000 -5000000
data_path:/icon/data/2023_08_MoS2_5um_hbn_sub/
example_pos:-3599003.2004       243064.6355          -1000000
N_dwell:200
sampling_period:15
make_plots:0
m1:0.98976
m2:-0.0073571
==========
Detector params:
Sampling period (ms): 15.000000
N dwell: 200.000000
Filament current (A): 1.540000
Filament emission (mA): 1.661436
Solenoid current (A): NaN
Solenoid shim current (A): NaN
Lens params:
0  685
1  300
2  125
3      -0.002
4       -0.01
5       0.012
6         0.8
7         2.1
8         2.8
9  3000
10  1450
11         0.85
12   0
==========
Data:
z(nm),I(A)
200000,4.3513e-11,
100000,4.542e-11,
0,4.4357e-11,
-100000,4.0747e-11,
-200000,3.9497e-11,
-300000,3.8306e-11,
-400000,3.8915e-11,
-500000,3.9491e-11,
-600000,4.1039e-11,
-700000,4.0042e-11,
-800000,4.0071e-11,
-900000,4.0216e-11,
-1000000,4.0509e-11,
-1100000,4.2023e-11,
-1200000,4.4742e-11,
-1300000,4.6511e-11,
-1400000,4.5079e-11,
-1500000,4.3159e-11,
-1600000,4.2521e-11,
-1700000,4.2352e-11,
-1800000,4.158e-11,
-1900000,4.2918e-11,
-2000000,4.1795e-11,
-2100000,4.1385e-11,
-2200000,4.2422e-11,
-2300000,4.0961e-11,
-2400000,4.0572e-11,
-2500000,4.0235e-11,
-2600000,3.9078e-11,
-2700000,3.984e-11,
-2800000,3.956e-11,
-2900000,3.839e-11,
-3000000,3.8657e-11,
-3100000,3.719e-11,
-3200000,3.7021e-11,
-3300000,3.6055e-11,
-3400000,3.4692e-11,
-3500000,3.4261e-11,
-3600000,3.4387e-11,
-3700000,3.275e-11,
-3800000,3.3365e-11,
-3900000,3.1572e-11,
-4000000,3.1766e-11,
-4100000,3.1157e-11,
-4200000,2.9267e-11,
-4300000,2.995e-11,
-4400000,2.9168e-11,
-4500000,2.835e-11,
-4600000,2.7343e-11,
-4700000,2.7067e-11,
-4800000,2.7256e-11,
-4900000,2.6427e-11,
-5000000,2.5393e-11,
-4950000,2.6502e-11,
-4850000,2.5982e-11,
-4750000,2.6899e-11,
-4650000,2.7027e-11,
-4550000,2.8039e-11,
-4450000,2.8792e-11,
-4350000,2.9627e-11,
-4250000,3.0088e-11,
-4150000,3.0272e-11,
-4050000,3.1019e-11,
-3950000,3.1077e-11,
-3850000,3.2494e-11,
-3750000,3.2903e-11,
-3650000,3.3216e-11,
-3550000,3.482e-11,
-3450000,3.5521e-11,
-3350000,3.5511e-11,
-3250000,3.6855e-11,
-3150000,3.7139e-11,
-3050000,3.7476e-11,
-2950000,3.8462e-11,
-2850000,3.9964e-11,
-2750000,3.8773e-11,
-2650000,4.0124e-11,
-2550000,4.1053e-11,
-2450000,4.0708e-11,
-2350000,4.0285e-11,
-2250000,4.0591e-11,
-2150000,4.1619e-11,
-2050000,4.1412e-11,
-1950000,4.2121e-11,
-1850000,4.1828e-11,
-1750000,4.2759e-11,
-1650000,4.2807e-11,
-1550000,4.2681e-11,
-1450000,4.3109e-11,
-1350000,4.3398e-11,
-1250000,4.3303e-11,
-1150000,4.2866e-11,
-1050000,4.1113e-11,
-950000,3.9896e-11,
-850000,3.942e-11,
-750000,3.9182e-11,
-650000,3.923e-11,
-550000,3.9464e-11,
-450000,3.7692e-11,
-350000,3.8519e-11,
-250000,3.7076e-11,
-150000,3.8294e-11,
-50000,3.8524e-11,
50000,4.1281e-11,
150000,4.2033e-11,
