General parameters:
Start time: 2023              8             21             17             12      46.952001
Finish time: 2023              8             21             17             18      41.619263
Dwell time (ms): 3000.000000
Source chamber pressure: 2.00e+3
Differential chamber pressure: 7.97e-07
Sample chamber pressure: 3.84e-08
Example position (nm): -2844149.517238,149879.869252,-1000000.000000
Rotation angle (udeg): 135000140.000000
==========
Instrument status: 
0:Data Directory:/icon/data/2023_08_MoS2_5um_hbn_sub/
1:Sample:MoS2
2:Comments:no
3:PinholePlate:#C13
4:z_Zero:4200
5:Operator:djw77/nav31/kw570
==========
zscan inputs: 
z_sep:50000
z_range:200000 -5000000
data_path:/icon/data/2023_08_MoS2_5um_hbn_sub/
example_pos:-2844149.5172      149879.86925          -1000000
N_dwell:200
sampling_period:15
make_plots:0
m1:0.98976
m2:-0.0073571
==========
Detector params:
Sampling period (ms): 15.000000
N dwell: 200.000000
Filament current (A): 1.540000
Filament emission (mA): 1.738044
Solenoid current (A): NaN
Solenoid shim current (A): NaN
Lens params:
0  685
1  300
2  125
3      -0.002
4       -0.01
5       0.012
6         0.8
7         2.1
8         2.8
9  3000
10  1450
11         0.85
12   0
==========
Data:
z(nm),I(A)
200000,4.6647e-11,
100000,4.643e-11,
0,4.6488e-11,
-100000,4.8106e-11,
-200000,4.7629e-11,
-300000,4.7452e-11,
-400000,4.7281e-11,
-500000,4.8522e-11,
-600000,4.7723e-11,
-700000,4.8428e-11,
-800000,4.9488e-11,
-900000,4.8915e-11,
-1000000,4.8771e-11,
-1100000,4.822e-11,
-1200000,4.9703e-11,
-1300000,4.9112e-11,
-1400000,4.9918e-11,
-1500000,5.0843e-11,
-1600000,4.969e-11,
-1700000,4.9732e-11,
-1800000,4.941e-11,
-1900000,4.9323e-11,
-2000000,4.8732e-11,
-2100000,4.7762e-11,
-2200000,4.8487e-11,
-2300000,4.7992e-11,
-2400000,4.7651e-11,
-2500000,4.6493e-11,
-2600000,4.6685e-11,
-2700000,4.5752e-11,
-2800000,4.5449e-11,
-2900000,4.4938e-11,
-3000000,4.3718e-11,
-3100000,4.3435e-11,
-3200000,4.2678e-11,
-3300000,4.1788e-11,
-3400000,4.1757e-11,
-3500000,4.0592e-11,
-3600000,4.0129e-11,
-3700000,3.8552e-11,
-3800000,3.8788e-11,
-3900000,3.6969e-11,
-4000000,3.7099e-11,
-4100000,3.6056e-11,
-4200000,3.6154e-11,
-4300000,3.5006e-11,
-4400000,3.3785e-11,
-4500000,3.4972e-11,
-4600000,3.4344e-11,
-4700000,3.2339e-11,
-4800000,3.2189e-11,
-4900000,3.1087e-11,
-5000000,3.0804e-11,
-4950000,3.0656e-11,
-4850000,3.171e-11,
-4750000,3.2049e-11,
-4650000,3.2858e-11,
-4550000,3.3251e-11,
-4450000,3.4554e-11,
-4350000,3.5527e-11,
-4250000,3.5347e-11,
-4150000,3.7011e-11,
-4050000,3.6955e-11,
-3950000,3.731e-11,
-3850000,3.8001e-11,
-3750000,3.8622e-11,
-3650000,4.0423e-11,
-3550000,4.0058e-11,
-3450000,4.0276e-11,
-3350000,4.1898e-11,
-3250000,4.1731e-11,
-3150000,4.2017e-11,
-3050000,4.4018e-11,
-2950000,4.4107e-11,
-2850000,4.5711e-11,
-2750000,4.6851e-11,
-2650000,4.7379e-11,
-2550000,4.6211e-11,
-2450000,4.7849e-11,
-2350000,4.7639e-11,
-2250000,4.8831e-11,
-2150000,4.8484e-11,
-2050000,4.9647e-11,
-1950000,4.8896e-11,
-1850000,4.9034e-11,
-1750000,5.0528e-11,
-1650000,5.0675e-11,
-1550000,4.9633e-11,
-1450000,4.9013e-11,
-1350000,4.9369e-11,
-1250000,4.8781e-11,
-1150000,4.7639e-11,
-1050000,4.9454e-11,
-950000,4.9468e-11,
-850000,4.9178e-11,
-750000,4.8411e-11,
-650000,4.7654e-11,
-550000,4.7606e-11,
-450000,4.8161e-11,
-350000,4.8725e-11,
-250000,4.7163e-11,
-150000,4.7248e-11,
-50000,4.8395e-11,
50000,4.7841e-11,
150000,4.7111e-11,
