General parameters:
Start time: 2023              8             17             15             12      50.255614
Finish time: 2023              8             17             15             20      34.549355
Dwell time (ms): 3750.000000
Source chamber pressure: 2.00e+3
Differential chamber pressure: 7.89e-07
Sample chamber pressure: 3.84e-08
Example position (nm): -3472000.000000,305000.000000,-1000000.000000
Rotation angle (udeg): 90000095.000000
==========
Instrument status: 
0:Data Directory:/icon/data/2023_08_MoS2_5um_hbn_sub/
1:Sample:MoS2
2:Comments:no
3:PinholePlate:#C13
4:z_Zero:4200
5:Operator:djw77/nav31/kw570
==========
zscan inputs: 
z_sep:50000
z_range:500000 -5000000
data_path:/icon/data/2023_08_MoS2_5um_hbn_sub/
example_pos:-3472000   305000 -1000000
N_dwell:250
sampling_period:15
make_plots:1
m1:0.98976
m2:-0.0073571
==========
Detector params:
Sampling period (ms): 15.000000
N dwell: 250.000000
Filament current (A): 1.540000
Filament emission (mA): 1.656648
Solenoid current (A): NaN
Solenoid shim current (A): NaN
Lens params:
0  685
1  300
2  125
3      -0.002
4       -0.01
5       0.012
6         0.8
7         2.1
8         2.8
9  3000
10  1450
11         0.85
12   0
==========
Data:
z(nm),I(A)
500000,3.9076e-11,
400000,4.0885e-11,
300000,4.2414e-11,
200000,4.4473e-11,
100000,4.4777e-11,
0,4.4418e-11,
-100000,4.4063e-11,
-200000,4.3416e-11,
-300000,4.305e-11,
-400000,4.27e-11,
-500000,4.236e-11,
-600000,4.6294e-11,
-700000,5.0565e-11,
-800000,5.6451e-11,
-900000,6.4824e-11,
-1000000,6.7381e-11,
-1100000,6.3135e-11,
-1200000,5.7056e-11,
-1300000,5.1913e-11,
-1400000,4.9255e-11,
-1500000,4.7059e-11,
-1600000,4.6591e-11,
-1700000,4.5039e-11,
-1800000,4.3944e-11,
-1900000,4.3498e-11,
-2000000,4.2758e-11,
-2100000,4.2774e-11,
-2200000,4.304e-11,
-2300000,4.3691e-11,
-2400000,4.4582e-11,
-2500000,4.5673e-11,
-2600000,4.4396e-11,
-2700000,4.2869e-11,
-2800000,3.9873e-11,
-2900000,3.7615e-11,
-3000000,3.6824e-11,
-3100000,3.5332e-11,
-3200000,3.5017e-11,
-3300000,3.4087e-11,
-3400000,3.3462e-11,
-3500000,3.4185e-11,
-3600000,3.2983e-11,
-3700000,3.2608e-11,
-3800000,3.1116e-11,
-3900000,3.055e-11,
-4000000,2.9281e-11,
-4100000,2.8254e-11,
-4200000,2.8546e-11,
-4300000,2.7486e-11,
-4400000,2.6859e-11,
-4500000,2.5908e-11,
-4600000,2.5714e-11,
-4700000,2.5467e-11,
-4800000,2.3534e-11,
-4900000,2.4232e-11,
-5000000,2.3047e-11,
-4950000,2.3929e-11,
-4850000,2.4558e-11,
-4750000,2.3754e-11,
-4650000,2.591e-11,
-4550000,2.5138e-11,
-4450000,2.6233e-11,
-4350000,2.6572e-11,
-4250000,2.7696e-11,
-4150000,2.7882e-11,
-4050000,2.8913e-11,
-3950000,2.8999e-11,
-3850000,3.1441e-11,
-3750000,3.1981e-11,
-3650000,3.2264e-11,
-3550000,3.4489e-11,
-3450000,3.3732e-11,
-3350000,3.4899e-11,
-3250000,3.4758e-11,
-3150000,3.5057e-11,
-3050000,3.5935e-11,
-2950000,3.7356e-11,
-2850000,3.8328e-11,
-2750000,4.1513e-11,
-2650000,4.3159e-11,
-2550000,4.486e-11,
-2450000,4.5074e-11,
-2350000,4.43e-11,
-2250000,4.3401e-11,
-2150000,4.2002e-11,
-2050000,4.1588e-11,
-1950000,4.1581e-11,
-1850000,4.2318e-11,
-1750000,4.4063e-11,
-1650000,4.4591e-11,
-1550000,4.6416e-11,
-1450000,4.7161e-11,
-1350000,4.9743e-11,
-1250000,5.4473e-11,
-1150000,6.0134e-11,
-1050000,6.6633e-11,
-950000,6.782e-11,
-850000,6.2188e-11,
-750000,5.4046e-11,
-650000,4.8336e-11,
-550000,4.3732e-11,
-450000,4.2705e-11,
-350000,4.1078e-11,
-250000,4.386e-11,
-150000,4.3196e-11,
-50000,4.3758e-11,
50000,4.4305e-11,
150000,4.4914e-11,
250000,4.3749e-11,
350000,4.1608e-11,
450000,3.9927e-11,
