General parameters:
Start time: 2023              8             19             13             50      31.930343
Finish time: 2023              8             19             13             56      28.940373
Dwell time (ms): 3000.000000
Source chamber pressure: 2.00e+3
Differential chamber pressure: 7.96e-07
Sample chamber pressure: 3.83e-08
Example position (nm): -4056783.797723,-98164.383794,-1000000.000000
Rotation angle (udeg): 69469550.000000
==========
Instrument status: 
0:Data Directory:/icon/data/2023_08_MoS2_5um_hbn_sub/
1:Sample:MoS2
2:Comments:no
3:PinholePlate:#C13
4:z_Zero:4200
5:Operator:djw77/nav31/kw570
==========
zscan inputs: 
z_sep:50000
z_range:200000 -5000000
data_path:/icon/data/2023_08_MoS2_5um_hbn_sub/
example_pos:-4056783.7977     -98164.383794          -1000000
N_dwell:200
sampling_period:15
make_plots:0
m1:0.98976
m2:-0.0073571
==========
Detector params:
Sampling period (ms): 15.000000
N dwell: 200.000000
Filament current (A): 1.540000
Filament emission (mA): 1.678878
Solenoid current (A): NaN
Solenoid shim current (A): NaN
Lens params:
0  685
1  300
2  125
3      -0.002
4       -0.01
5       0.012
6         0.8
7         2.1
8         2.8
9  3000
10  1450
11         0.85
12   0
==========
Data:
z(nm),I(A)
200000,4.9677e-11,
100000,5.0846e-11,
0,5.0924e-11,
-100000,5.1721e-11,
-200000,5.3734e-11,
-300000,5.5753e-11,
-400000,5.6592e-11,
-500000,6.1088e-11,
-600000,6.6288e-11,
-700000,7.2112e-11,
-800000,7.1777e-11,
-900000,7.0728e-11,
-1000000,7.9478e-11,
-1100000,8.1455e-11,
-1200000,8.2395e-11,
-1300000,7.9675e-11,
-1400000,7.4091e-11,
-1500000,7.0969e-11,
-1600000,6.8684e-11,
-1700000,6.504e-11,
-1800000,6.409e-11,
-1900000,6.0582e-11,
-2000000,5.8359e-11,
-2100000,5.668e-11,
-2200000,5.6224e-11,
-2300000,5.45e-11,
-2400000,5.4418e-11,
-2500000,5.406e-11,
-2600000,5.0103e-11,
-2700000,4.9511e-11,
-2800000,4.8073e-11,
-2900000,4.7138e-11,
-3000000,4.7706e-11,
-3100000,4.4602e-11,
-3200000,4.3002e-11,
-3300000,4.074e-11,
-3400000,4.0605e-11,
-3500000,4.0559e-11,
-3600000,4.0564e-11,
-3700000,3.8339e-11,
-3800000,3.6411e-11,
-3900000,3.5493e-11,
-4000000,3.3663e-11,
-4100000,3.4337e-11,
-4200000,3.2387e-11,
-4300000,3.1247e-11,
-4400000,2.9941e-11,
-4500000,2.9391e-11,
-4600000,2.8729e-11,
-4700000,2.7541e-11,
-4800000,2.762e-11,
-4900000,2.6903e-11,
-5000000,2.5212e-11,
-4950000,2.6282e-11,
-4850000,2.6432e-11,
-4750000,2.7283e-11,
-4650000,2.7959e-11,
-4550000,2.9407e-11,
-4450000,2.9672e-11,
-4350000,3.0499e-11,
-4250000,3.1626e-11,
-4150000,3.3285e-11,
-4050000,3.3585e-11,
-3950000,3.4518e-11,
-3850000,3.6092e-11,
-3750000,3.7087e-11,
-3650000,3.7843e-11,
-3550000,3.8918e-11,
-3450000,3.9953e-11,
-3350000,3.9408e-11,
-3250000,4.1583e-11,
-3150000,4.4102e-11,
-3050000,4.5659e-11,
-2950000,4.6636e-11,
-2850000,4.8331e-11,
-2750000,5.0116e-11,
-2650000,5.0037e-11,
-2550000,5.1481e-11,
-2450000,5.3839e-11,
-2350000,5.3631e-11,
-2250000,5.5155e-11,
-2150000,5.8389e-11,
-2050000,5.6601e-11,
-1950000,5.9252e-11,
-1850000,6.1969e-11,
-1750000,6.5001e-11,
-1650000,6.4512e-11,
-1550000,6.6206e-11,
-1450000,6.7638e-11,
-1350000,6.5664e-11,
-1250000,7.1012e-11,
-1150000,7.0399e-11,
-1050000,6.6053e-11,
-950000,6.2692e-11,
-850000,5.8939e-11,
-750000,6.3447e-11,
-650000,6.5373e-11,
-550000,6.0294e-11,
-450000,5.6267e-11,
-350000,5.4522e-11,
-250000,5.2883e-11,
-150000,5.052e-11,
-50000,4.8854e-11,
50000,4.9606e-11,
150000,4.8742e-11,
