General parameters:
Start time: 2023              8             18             18              2      36.667777
Finish time: 2023              8             18             18              8      33.741407
Dwell time (ms): 3000.000000
Source chamber pressure: 2.00e+3
Differential chamber pressure: 7.95e-07
Sample chamber pressure: 3.84e-08
Example position (nm): -3708894.214049,197348.239647,-1000000.000000
Rotation angle (udeg): 72500190.000000
==========
Instrument status: 
0:Data Directory:/icon/data/2023_08_MoS2_5um_hbn_sub/
1:Sample:MoS2
2:Comments:no
3:PinholePlate:#C13
4:z_Zero:4200
5:Operator:djw77/nav31/kw570
==========
zscan inputs: 
z_sep:50000
z_range:200000 -5000000
data_path:/icon/data/2023_08_MoS2_5um_hbn_sub/
example_pos:-3708894.214      197348.23965          -1000000
N_dwell:200
sampling_period:15
make_plots:0
m1:0.98976
m2:-0.0073571
==========
Detector params:
Sampling period (ms): 15.000000
N dwell: 200.000000
Filament current (A): 1.540000
Filament emission (mA): 1.659042
Solenoid current (A): NaN
Solenoid shim current (A): NaN
Lens params:
0  685
1  300
2  125
3      -0.002
4       -0.01
5       0.012
6         0.8
7         2.1
8         2.8
9  3000
10  1450
11         0.85
12   0
==========
Data:
z(nm),I(A)
200000,4.036e-11,
100000,4.1733e-11,
0,4.0574e-11,
-100000,3.7348e-11,
-200000,3.7601e-11,
-300000,3.8801e-11,
-400000,3.8872e-11,
-500000,4.1442e-11,
-600000,4.2645e-11,
-700000,4.2319e-11,
-800000,4.1484e-11,
-900000,4.1536e-11,
-1000000,4.5122e-11,
-1100000,4.7582e-11,
-1200000,4.7991e-11,
-1300000,5.1412e-11,
-1400000,4.8704e-11,
-1500000,4.6815e-11,
-1600000,4.7496e-11,
-1700000,4.5492e-11,
-1800000,4.7829e-11,
-1900000,4.6898e-11,
-2000000,4.5117e-11,
-2100000,4.4055e-11,
-2200000,4.2492e-11,
-2300000,4.3242e-11,
-2400000,4.4088e-11,
-2500000,4.2446e-11,
-2600000,4.1718e-11,
-2700000,4e-11,
-2800000,4.0499e-11,
-2900000,4.1804e-11,
-3000000,3.9384e-11,
-3100000,3.8082e-11,
-3200000,3.6889e-11,
-3300000,3.5968e-11,
-3400000,3.43e-11,
-3500000,3.3671e-11,
-3600000,3.3449e-11,
-3700000,3.2547e-11,
-3800000,3.2405e-11,
-3900000,3.1262e-11,
-4000000,3.1014e-11,
-4100000,3.1332e-11,
-4200000,3.0012e-11,
-4300000,2.8354e-11,
-4400000,2.8982e-11,
-4500000,2.7723e-11,
-4600000,2.7858e-11,
-4700000,2.6781e-11,
-4800000,2.6046e-11,
-4900000,2.6245e-11,
-5000000,2.5193e-11,
-4950000,2.5292e-11,
-4850000,2.5819e-11,
-4750000,2.659e-11,
-4650000,2.6896e-11,
-4550000,2.7722e-11,
-4450000,2.8501e-11,
-4350000,2.9329e-11,
-4250000,2.9921e-11,
-4150000,2.9521e-11,
-4050000,3.015e-11,
-3950000,3.1411e-11,
-3850000,3.2379e-11,
-3750000,3.1885e-11,
-3650000,3.3333e-11,
-3550000,3.3445e-11,
-3450000,3.4067e-11,
-3350000,3.6206e-11,
-3250000,3.5928e-11,
-3150000,3.639e-11,
-3050000,3.8122e-11,
-2950000,3.7946e-11,
-2850000,3.789e-11,
-2750000,3.9256e-11,
-2650000,3.8782e-11,
-2550000,3.8922e-11,
-2450000,3.9247e-11,
-2350000,3.9927e-11,
-2250000,4.14e-11,
-2150000,4.1306e-11,
-2050000,4.1334e-11,
-1950000,4.1372e-11,
-1850000,4.111e-11,
-1750000,4.157e-11,
-1650000,4.0653e-11,
-1550000,4.228e-11,
-1450000,4.2736e-11,
-1350000,4.4331e-11,
-1250000,4.5162e-11,
-1150000,4.2126e-11,
-1050000,4.1461e-11,
-950000,4.0437e-11,
-850000,3.9449e-11,
-750000,3.9352e-11,
-650000,4.138e-11,
-550000,3.8888e-11,
-450000,3.8847e-11,
-350000,3.895e-11,
-250000,3.7893e-11,
-150000,3.878e-11,
-50000,3.9085e-11,
50000,4.1706e-11,
150000,4.2308e-11,
