General parameters:
Start time: 2023              8             23             13             11      21.412684
Finish time: 2023              8             23             13             17      17.995294
Dwell time (ms): 3000.000000
Source chamber pressure: 2.00e+3
Differential chamber pressure: 7.72e-07
Sample chamber pressure: 3.84e-08
Example position (nm): -3542772.196787,301357.333663,-1000000.000000
Rotation angle (udeg): 85000085.000000
==========
Instrument status: 
0:Data Directory:/icon/data/2023_08_MoS2_5um_hbn_sub/
1:Sample:MoS2
2:Comments:no
3:PinholePlate:#C13
4:z_Zero:4200
5:Operator:djw77/nav31/kw570
==========
zscan inputs: 
z_sep:50000
z_range:200000 -5000000
data_path:/icon/data/2023_08_MoS2_5um_hbn_sub/
example_pos:-3542772.1968      301357.33366          -1000000
N_dwell:200
sampling_period:15
make_plots:1
m1:0.98976
m2:-0.0073571
==========
Detector params:
Sampling period (ms): 15.000000
N dwell: 200.000000
Filament current (A): 1.540000
Filament emission (mA): 1.770534
Solenoid current (A): NaN
Solenoid shim current (A): NaN
Lens params:
0  685
1  300
2  125
3      -0.002
4       -0.01
5       0.012
6         0.8
7         2.1
8         2.8
9  3000
10  1450
11         0.85
12   0
==========
Data:
z(nm),I(A)
200000,4.8742e-11,
100000,4.6385e-11,
0,4.7367e-11,
-100000,5.0899e-11,
-200000,5.1408e-11,
-300000,5.3556e-11,
-400000,5.486e-11,
-500000,5.3366e-11,
-600000,5.4895e-11,
-700000,6.1498e-11,
-800000,7.8318e-11,
-900000,1.0441e-10,
-1000000,1.1227e-10,
-1100000,9.4855e-11,
-1200000,7.2035e-11,
-1300000,6.0746e-11,
-1400000,5.8463e-11,
-1500000,5.6455e-11,
-1600000,5.6494e-11,
-1700000,5.5353e-11,
-1800000,5.5094e-11,
-1900000,5.2481e-11,
-2000000,5.1704e-11,
-2100000,5.1297e-11,
-2200000,5.0154e-11,
-2300000,5.166e-11,
-2400000,5.2093e-11,
-2500000,5.1911e-11,
-2600000,5.0026e-11,
-2700000,4.7947e-11,
-2800000,4.4568e-11,
-2900000,4.2425e-11,
-3000000,4.1036e-11,
-3100000,4.039e-11,
-3200000,4.0967e-11,
-3300000,4.0999e-11,
-3400000,4.4243e-11,
-3500000,4.3863e-11,
-3600000,4.3033e-11,
-3700000,4.0102e-11,
-3800000,3.6821e-11,
-3900000,3.3826e-11,
-4000000,3.1631e-11,
-4100000,2.8575e-11,
-4200000,2.7512e-11,
-4300000,2.6629e-11,
-4400000,2.4795e-11,
-4500000,2.5514e-11,
-4600000,2.4802e-11,
-4700000,2.5119e-11,
-4800000,2.4407e-11,
-4900000,2.3689e-11,
-5000000,2.3841e-11,
-4950000,2.292e-11,
-4850000,2.4494e-11,
-4750000,2.4012e-11,
-4650000,2.4802e-11,
-4550000,2.4902e-11,
-4450000,2.5175e-11,
-4350000,2.6007e-11,
-4250000,2.7549e-11,
-4150000,2.7257e-11,
-4050000,2.9684e-11,
-3950000,3.3103e-11,
-3850000,3.5552e-11,
-3750000,3.9204e-11,
-3650000,4.0614e-11,
-3550000,4.3935e-11,
-3450000,4.3782e-11,
-3350000,4.3364e-11,
-3250000,4.071e-11,
-3150000,4.0473e-11,
-3050000,4.0804e-11,
-2950000,4.1573e-11,
-2850000,4.2818e-11,
-2750000,4.5837e-11,
-2650000,4.8668e-11,
-2550000,5.1723e-11,
-2450000,5.2287e-11,
-2350000,5.1108e-11,
-2250000,5.0294e-11,
-2150000,5.0616e-11,
-2050000,5.1624e-11,
-1950000,5.1369e-11,
-1850000,5.4132e-11,
-1750000,5.5135e-11,
-1650000,5.6516e-11,
-1550000,5.7408e-11,
-1450000,5.8536e-11,
-1350000,6.0709e-11,
-1250000,6.3561e-11,
-1150000,8.3447e-11,
-1050000,1.0396e-10,
-950000,1.1218e-10,
-850000,9.4102e-11,
-750000,7.205e-11,
-650000,5.6981e-11,
-550000,5.5196e-11,
-450000,5.5084e-11,
-350000,5.4991e-11,
-250000,5.2678e-11,
-150000,5.2542e-11,
-50000,4.899e-11,
50000,4.6644e-11,
150000,4.7889e-11,
