General parameters:
Start time: 2023              9              5             11              4      49.477279
Finish time: 2023              9              5             11             13      52.652362
Dwell time (ms): 3750.000000
Source chamber pressure: Error-S
Differential chamber pressure: 8.02e-07
Sample chamber pressure: 3.67e-08
Example position (nm): -2890000.000000,245000.000000,-1000000.000000
Rotation angle (udeg): 125000085.000000
==========
Instrument status: 
0:Data Directory:/icon/data/2023_08_MoS2_5um_hbn_sub/
1:Sample:MoS2
2:Comments:no
3:PinholePlate:#C13
4:z_Zero:4200
5:Operator:djw77/nav31/kw570
==========
zscan inputs: 
z_sep:50000
z_range:500000 -6000000
data_path:/icon/data/2023_08_MoS2_5um_hbn_sub/
example_pos:-2890000   245000 -1000000
N_dwell:250
sampling_period:15
make_plots:1
m1:0.98976
m2:-0.0073571
==========
Detector params:
Sampling period (ms): 15.000000
N dwell: 250.000000
Filament current (A): 1.540000
Filament emission (mA): 1.935378
Solenoid current (A): NaN
Solenoid shim current (A): NaN
Lens params:
0  685
1  300
2  125
3      -0.002
4       -0.01
5       0.012
6         0.8
7         2.1
8         2.8
9  3000
10  1450
11         0.85
12   0
==========
Data:
z(nm),I(A)
500000,7.2766e-11,
400000,7.5062e-11,
300000,8.0983e-11,
200000,9.142e-11,
100000,8.9646e-11,
0,9.3905e-11,
-100000,9.9866e-11,
-200000,1.1172e-10,
-300000,1.0587e-10,
-400000,1.1194e-10,
-500000,1.2339e-10,
-600000,1.2097e-10,
-700000,1.2421e-10,
-800000,1.45e-10,
-900000,1.7975e-10,
-1000000,1.679e-10,
-1100000,1.4721e-10,
-1200000,1.3287e-10,
-1300000,1.2838e-10,
-1400000,1.2521e-10,
-1500000,1.2487e-10,
-1600000,1.3262e-10,
-1700000,1.4003e-10,
-1800000,1.3606e-10,
-1900000,1.278e-10,
-2000000,1.225e-10,
-2100000,1.1764e-10,
-2200000,1.1884e-10,
-2300000,1.1989e-10,
-2400000,1.2611e-10,
-2500000,1.5237e-10,
-2600000,1.7294e-10,
-2700000,1.915e-10,
-2800000,1.8985e-10,
-2900000,1.5901e-10,
-3000000,1.3444e-10,
-3100000,1.1523e-10,
-3200000,1.0191e-10,
-3300000,9.6044e-11,
-3400000,9.9651e-11,
-3500000,1.0551e-10,
-3600000,1.0917e-10,
-3700000,1.0344e-10,
-3800000,1.0981e-10,
-3900000,1.1331e-10,
-4000000,1.1071e-10,
-4100000,9.7153e-11,
-4200000,8.1248e-11,
-4300000,7.3532e-11,
-4400000,6.4093e-11,
-4500000,5.9012e-11,
-4600000,5.576e-11,
-4700000,5.4461e-11,
-4800000,5.3385e-11,
-4900000,5.3163e-11,
-5000000,5.3242e-11,
-5100000,5.2518e-11,
-5200000,5.2286e-11,
-5300000,5.217e-11,
-5400000,5.1059e-11,
-5500000,5.0302e-11,
-5600000,4.7529e-11,
-5700000,4.6948e-11,
-5800000,4.4857e-11,
-5900000,4.1524e-11,
-6000000,4.0158e-11,
-5950000,4.1151e-11,
-5850000,4.277e-11,
-5750000,4.4172e-11,
-5650000,4.82e-11,
-5550000,4.8371e-11,
-5450000,5.0919e-11,
-5350000,5.1784e-11,
-5250000,5.2312e-11,
-5150000,5.2869e-11,
-5050000,5.2068e-11,
-4950000,5.2423e-11,
-4850000,5.2652e-11,
-4750000,5.3833e-11,
-4650000,5.409e-11,
-4550000,5.6872e-11,
-4450000,6.0915e-11,
-4350000,6.592e-11,
-4250000,7.6504e-11,
-4150000,8.6872e-11,
-4050000,1.0256e-10,
-3950000,1.1166e-10,
-3850000,1.105e-10,
-3750000,1.0386e-10,
-3650000,1.0552e-10,
-3550000,1.0733e-10,
-3450000,1.0087e-10,
-3350000,9.5532e-11,
-3250000,9.7233e-11,
-3150000,1.0459e-10,
-3050000,1.152e-10,
-2950000,1.3645e-10,
-2850000,1.5988e-10,
-2750000,1.6755e-10,
-2650000,1.6989e-10,
-2550000,1.5526e-10,
-2450000,1.37e-10,
-2350000,1.2017e-10,
-2250000,1.1257e-10,
-2150000,1.1208e-10,
-2050000,1.1142e-10,
-1950000,1.1394e-10,
-1850000,1.1296e-10,
-1750000,1.2182e-10,
-1650000,1.2163e-10,
-1550000,1.1777e-10,
-1450000,1.199e-10,
-1350000,1.2149e-10,
-1250000,1.2276e-10,
-1150000,1.2498e-10,
-1050000,1.4969e-10,
-950000,1.698e-10,
-850000,1.5519e-10,
-750000,1.3152e-10,
-650000,1.1132e-10,
-550000,1.0735e-10,
-450000,1.0797e-10,
-350000,1.0445e-10,
-250000,9.1991e-11,
-150000,9.1956e-11,
-50000,9.0452e-11,
50000,8.783e-11,
150000,8.7115e-11,
250000,7.9162e-11,
350000,7.6202e-11,
450000,7.1396e-11,
