General parameters:
Start time: 2023              8             29              3             12      35.498546
Finish time: 2023              8             29              3             19      40.439207
Dwell time (ms): 3000.000000
Source chamber pressure: 2.00e+3
Differential chamber pressure: 6.06e-07
Sample chamber pressure: 3.57e-08
Example position (nm): -3777800.000000,201500.000000,-1000000.000000
Rotation angle (udeg): 70000200.000000
==========
Instrument status: 
0:Data Directory:/icon/data/2023_08_MoS2_5um_hbn_sub/
1:Sample:MoS2
2:Comments:no
3:PinholePlate:#C13
4:z_Zero:4200
5:Operator:djw77/nav31/kw570
==========
zscan inputs: 
z_sep:50000
z_range:200000 -6000000
data_path:/icon/data/2023_08_MoS2_5um_hbn_sub/
example_pos:-3777800   201500 -1000000
N_dwell:200
sampling_period:15
make_plots:1
m1:0.98976
m2:-0.0073571
==========
Detector params:
Sampling period (ms): 15.000000
N dwell: 200.000000
Filament current (A): 1.540000
Filament emission (mA): 1.922382
Solenoid current (A): NaN
Solenoid shim current (A): NaN
Lens params:
0  685
1  300
2  125
3      -0.002
4       -0.01
5       0.012
6         0.8
7         2.1
8         2.8
9  3000
10  1450
11         0.85
12   0
==========
Data:
z(nm),I(A)
200000,2.2459e-10,
100000,2.0896e-10,
0,1.7668e-10,
-100000,1.5362e-10,
-200000,1.2039e-10,
-300000,9.8485e-11,
-400000,8.6167e-11,
-500000,8.2432e-11,
-600000,9.1066e-11,
-700000,1.1851e-10,
-800000,1.7599e-10,
-900000,2.5243e-10,
-1000000,2.8899e-10,
-1100000,2.7706e-10,
-1200000,2.1333e-10,
-1300000,1.4807e-10,
-1400000,1.1483e-10,
-1500000,1.0366e-10,
-1600000,1.0597e-10,
-1700000,1.2135e-10,
-1800000,1.4199e-10,
-1900000,1.5129e-10,
-2000000,1.4743e-10,
-2100000,1.2713e-10,
-2200000,1.0034e-10,
-2300000,8.3993e-11,
-2400000,8.0758e-11,
-2500000,8.8939e-11,
-2600000,1.0674e-10,
-2700000,1.3411e-10,
-2800000,1.5793e-10,
-2900000,1.6531e-10,
-3000000,1.5558e-10,
-3100000,1.3059e-10,
-3200000,1.0206e-10,
-3300000,7.9964e-11,
-3400000,6.5873e-11,
-3500000,6.0217e-11,
-3600000,5.8737e-11,
-3700000,5.9257e-11,
-3800000,6.2964e-11,
-3900000,6.307e-11,
-4000000,6.4389e-11,
-4100000,6.3768e-11,
-4200000,5.9352e-11,
-4300000,5.527e-11,
-4400000,4.9072e-11,
-4500000,4.5619e-11,
-4600000,4.1912e-11,
-4700000,3.8536e-11,
-4800000,3.756e-11,
-4900000,3.6428e-11,
-5000000,3.5787e-11,
-5100000,3.5074e-11,
-5200000,3.3801e-11,
-5300000,3.4589e-11,
-5400000,3.3014e-11,
-5500000,3.4053e-11,
-5600000,3.3459e-11,
-5700000,3.3097e-11,
-5800000,3.2041e-11,
-5900000,3.1622e-11,
-6000000,3.1098e-11,
-5950000,3.1492e-11,
-5850000,3.0752e-11,
-5750000,3.2156e-11,
-5650000,3.306e-11,
-5550000,3.4458e-11,
-5450000,3.3471e-11,
-5350000,3.3639e-11,
-5250000,3.3874e-11,
-5150000,3.5586e-11,
-5050000,3.5476e-11,
-4950000,3.5927e-11,
-4850000,3.6267e-11,
-4750000,3.746e-11,
-4650000,3.9696e-11,
-4550000,4.4848e-11,
-4450000,4.7479e-11,
-4350000,5.1962e-11,
-4250000,5.8815e-11,
-4150000,6.2688e-11,
-4050000,6.4314e-11,
-3950000,6.5093e-11,
-3850000,6.3786e-11,
-3750000,6.1329e-11,
-3650000,5.9517e-11,
-3550000,5.9815e-11,
-3450000,6.2595e-11,
-3350000,7.1138e-11,
-3250000,8.7651e-11,
-3150000,1.1464e-10,
-3050000,1.431e-10,
-2950000,1.6469e-10,
-2850000,1.6741e-10,
-2750000,1.5206e-10,
-2650000,1.2533e-10,
-2550000,9.9059e-11,
-2450000,8.6474e-11,
-2350000,8.0195e-11,
-2250000,8.9847e-11,
-2150000,1.1102e-10,
-2050000,1.3939e-10,
-1950000,1.5522e-10,
-1850000,1.5378e-10,
-1750000,1.3721e-10,
-1650000,1.1508e-10,
-1550000,1.0463e-10,
-1450000,1.0588e-10,
-1350000,1.2852e-10,
-1250000,1.6774e-10,
-1150000,2.4382e-10,
-1050000,2.8848e-10,
-950000,2.8686e-10,
-850000,2.3424e-10,
-750000,1.5502e-10,
-650000,1.0586e-10,
-550000,8.636e-11,
-450000,8.4333e-11,
-350000,9.0529e-11,
-250000,1.0901e-10,
-150000,1.3351e-10,
-50000,1.6044e-10,
50000,1.8936e-10,
150000,2.181e-10,
