General parameters:
Start time: 2023              8             18             17             14      12.056565
Finish time: 2023              8             18             17             20       9.137542
Dwell time (ms): 3000.000000
Source chamber pressure: 2.00e+3
Differential chamber pressure: 7.94e-07
Sample chamber pressure: 3.88e-08
Example position (nm): -3963448.197794,10099.140480,-1000000.000000
Rotation angle (udeg): 52499870.000000
==========
Instrument status: 
0:Data Directory:/icon/data/2023_08_MoS2_5um_hbn_sub/
1:Sample:MoS2
2:Comments:no
3:PinholePlate:#C13
4:z_Zero:4200
5:Operator:djw77/nav31/kw570
==========
zscan inputs: 
z_sep:50000
z_range:200000 -5000000
data_path:/icon/data/2023_08_MoS2_5um_hbn_sub/
example_pos:-3963448.1978       10099.14048          -1000000
N_dwell:200
sampling_period:15
make_plots:0
m1:0.98976
m2:-0.0073571
==========
Detector params:
Sampling period (ms): 15.000000
N dwell: 200.000000
Filament current (A): 1.540000
Filament emission (mA): 1.658358
Solenoid current (A): NaN
Solenoid shim current (A): NaN
Lens params:
0  685
1  300
2  125
3      -0.002
4       -0.01
5       0.012
6         0.8
7         2.1
8         2.8
9  3000
10  1450
11         0.85
12   0
==========
Data:
z(nm),I(A)
200000,5.4379e-11,
100000,5.5864e-11,
0,5.6348e-11,
-100000,5.836e-11,
-200000,5.9492e-11,
-300000,6.113e-11,
-400000,6.2304e-11,
-500000,6.5297e-11,
-600000,6.7758e-11,
-700000,7.1307e-11,
-800000,7.3269e-11,
-900000,7.5189e-11,
-1000000,7.802e-11,
-1100000,8.0232e-11,
-1200000,8.1603e-11,
-1300000,8.119e-11,
-1400000,8.0303e-11,
-1500000,7.8854e-11,
-1600000,7.5971e-11,
-1700000,7.3762e-11,
-1800000,7.1394e-11,
-1900000,6.9318e-11,
-2000000,6.6921e-11,
-2100000,6.4706e-11,
-2200000,6.3033e-11,
-2300000,6.0444e-11,
-2400000,5.8022e-11,
-2500000,5.6763e-11,
-2600000,5.5191e-11,
-2700000,5.296e-11,
-2800000,5.2688e-11,
-2900000,5.0825e-11,
-3000000,4.962e-11,
-3100000,4.7738e-11,
-3200000,4.6485e-11,
-3300000,4.4683e-11,
-3400000,4.2932e-11,
-3500000,4.022e-11,
-3600000,3.9486e-11,
-3700000,3.7099e-11,
-3800000,3.6168e-11,
-3900000,3.4495e-11,
-4000000,3.3346e-11,
-4100000,3.2217e-11,
-4200000,3.0747e-11,
-4300000,2.926e-11,
-4400000,2.8189e-11,
-4500000,2.8168e-11,
-4600000,2.6535e-11,
-4700000,2.5261e-11,
-4800000,2.4904e-11,
-4900000,2.3322e-11,
-5000000,2.3284e-11,
-4950000,2.3823e-11,
-4850000,2.4958e-11,
-4750000,2.4966e-11,
-4650000,2.5764e-11,
-4550000,2.7404e-11,
-4450000,2.728e-11,
-4350000,2.8632e-11,
-4250000,2.8985e-11,
-4150000,3.1132e-11,
-4050000,3.3115e-11,
-3950000,3.4789e-11,
-3850000,3.459e-11,
-3750000,3.7168e-11,
-3650000,3.8334e-11,
-3550000,4.0841e-11,
-3450000,4.1451e-11,
-3350000,4.3394e-11,
-3250000,4.4444e-11,
-3150000,4.5982e-11,
-3050000,4.7939e-11,
-2950000,5.0198e-11,
-2850000,5.2467e-11,
-2750000,5.3891e-11,
-2650000,5.5548e-11,
-2550000,5.6343e-11,
-2450000,5.8302e-11,
-2350000,5.9767e-11,
-2250000,6.1461e-11,
-2150000,6.4046e-11,
-2050000,6.6334e-11,
-1950000,6.861e-11,
-1850000,6.9747e-11,
-1750000,7.1966e-11,
-1650000,7.5507e-11,
-1550000,7.7035e-11,
-1450000,7.8553e-11,
-1350000,8.1073e-11,
-1250000,8.0818e-11,
-1150000,7.9787e-11,
-1050000,7.8613e-11,
-950000,7.7917e-11,
-850000,7.4641e-11,
-750000,7.2025e-11,
-650000,6.8296e-11,
-550000,6.5744e-11,
-450000,6.3893e-11,
-350000,6.1867e-11,
-250000,5.9182e-11,
-150000,5.79e-11,
-50000,5.6273e-11,
50000,5.6339e-11,
150000,5.5607e-11,
