General parameters:
Start time: 2023              8             29              4             52      45.073715
Finish time: 2023              8             29              4             59      48.453512
Dwell time (ms): 3000.000000
Source chamber pressure: 2.00e+3
Differential chamber pressure: 6.04e-07
Sample chamber pressure: 3.62e-08
Example position (nm): -3226907.274621,329078.560199,-1000000.000000
Rotation angle (udeg): 104999805.000000
==========
Instrument status: 
0:Data Directory:/icon/data/2023_08_MoS2_5um_hbn_sub/
1:Sample:MoS2
2:Comments:no
3:PinholePlate:#C13
4:z_Zero:4200
5:Operator:djw77/nav31/kw570
==========
zscan inputs: 
z_sep:50000
z_range:200000 -6000000
data_path:/icon/data/2023_08_MoS2_5um_hbn_sub/
example_pos:-3226907.2746       329078.5602          -1000000
N_dwell:200
sampling_period:15
make_plots:1
m1:0.98976
m2:-0.0073571
==========
Detector params:
Sampling period (ms): 15.000000
N dwell: 200.000000
Filament current (A): 1.540000
Filament emission (mA): 1.926486
Solenoid current (A): NaN
Solenoid shim current (A): NaN
Lens params:
0  685
1  300
2  125
3      -0.002
4       -0.01
5       0.012
6         0.8
7         2.1
8         2.8
9  3000
10  1450
11         0.85
12   0
==========
Data:
z(nm),I(A)
200000,6.4294e-11,
100000,6.5235e-11,
0,6.5695e-11,
-100000,6.6445e-11,
-200000,6.7463e-11,
-300000,6.7608e-11,
-400000,7.0024e-11,
-500000,7.5902e-11,
-600000,9.0219e-11,
-700000,1.121e-10,
-800000,1.5055e-10,
-900000,1.8415e-10,
-1000000,1.8374e-10,
-1100000,1.4574e-10,
-1200000,1.1405e-10,
-1300000,9.4084e-11,
-1400000,8.4051e-11,
-1500000,8.5875e-11,
-1600000,9.2627e-11,
-1700000,1.0195e-10,
-1800000,1.0103e-10,
-1900000,9.099e-11,
-2000000,7.6954e-11,
-2100000,6.7246e-11,
-2200000,6.6029e-11,
-2300000,6.604e-11,
-2400000,6.7005e-11,
-2500000,6.8061e-11,
-2600000,6.891e-11,
-2700000,6.7865e-11,
-2800000,6.6043e-11,
-2900000,6.4501e-11,
-3000000,6.5612e-11,
-3100000,6.871e-11,
-3200000,7.4984e-11,
-3300000,8.3981e-11,
-3400000,8.7595e-11,
-3500000,8.9507e-11,
-3600000,8.633e-11,
-3700000,7.7639e-11,
-3800000,6.6994e-11,
-3900000,5.796e-11,
-4000000,5.0585e-11,
-4100000,4.6434e-11,
-4200000,4.498e-11,
-4300000,4.2586e-11,
-4400000,4.0975e-11,
-4500000,4.121e-11,
-4600000,4.0875e-11,
-4700000,3.9837e-11,
-4800000,3.8868e-11,
-4900000,3.7869e-11,
-5000000,3.7635e-11,
-5100000,3.7971e-11,
-5200000,3.6113e-11,
-5300000,3.6328e-11,
-5400000,3.8064e-11,
-5500000,3.6013e-11,
-5600000,3.5947e-11,
-5700000,3.7205e-11,
-5800000,3.5883e-11,
-5900000,3.4157e-11,
-6000000,3.4358e-11,
-5950000,3.3645e-11,
-5850000,3.4528e-11,
-5750000,3.5051e-11,
-5650000,3.555e-11,
-5550000,3.5267e-11,
-5450000,3.7062e-11,
-5350000,3.6785e-11,
-5250000,3.7229e-11,
-5150000,3.5806e-11,
-5050000,3.7478e-11,
-4950000,3.8223e-11,
-4850000,3.9409e-11,
-4750000,3.8959e-11,
-4650000,4.0192e-11,
-4550000,4.1293e-11,
-4450000,4.1653e-11,
-4350000,4.2764e-11,
-4250000,4.3923e-11,
-4150000,4.5592e-11,
-4050000,4.8276e-11,
-3950000,5.3746e-11,
-3850000,6.1844e-11,
-3750000,7.3048e-11,
-3650000,8.1395e-11,
-3550000,8.8559e-11,
-3450000,9.2344e-11,
-3350000,8.8049e-11,
-3250000,8.1771e-11,
-3150000,7.4779e-11,
-3050000,6.7979e-11,
-2950000,6.5363e-11,
-2850000,6.57e-11,
-2750000,6.6456e-11,
-2650000,6.8867e-11,
-2550000,6.9043e-11,
-2450000,6.9119e-11,
-2350000,6.6488e-11,
-2250000,6.716e-11,
-2150000,6.6469e-11,
-2050000,7.2107e-11,
-1950000,8.0924e-11,
-1850000,9.656e-11,
-1750000,1.0526e-10,
-1650000,1.0136e-10,
-1550000,9.1628e-11,
-1450000,8.5507e-11,
-1350000,8.9587e-11,
-1250000,1.0278e-10,
-1150000,1.3205e-10,
-1050000,1.7078e-10,
-950000,1.9137e-10,
-850000,1.762e-10,
-750000,1.3641e-10,
-650000,1.0246e-10,
-550000,8.4755e-11,
-450000,7.4127e-11,
-350000,6.992e-11,
-250000,6.8274e-11,
-150000,6.5695e-11,
-50000,6.7045e-11,
50000,6.6507e-11,
150000,6.5796e-11,
