General parameters:
Start time: 2023              8             29              5             35      38.028415
Finish time: 2023              8             29              5             42      42.396131
Dwell time (ms): 3000.000000
Source chamber pressure: 2.00e+3
Differential chamber pressure: 6.03e-07
Sample chamber pressure: 3.58e-08
Example position (nm): -2993200.000000,271500.000000,-1000000.000000
Rotation angle (udeg): 119999835.000000
==========
Instrument status: 
0:Data Directory:/icon/data/2023_08_MoS2_5um_hbn_sub/
1:Sample:MoS2
2:Comments:no
3:PinholePlate:#C13
4:z_Zero:4200
5:Operator:djw77/nav31/kw570
==========
zscan inputs: 
z_sep:50000
z_range:200000 -6000000
data_path:/icon/data/2023_08_MoS2_5um_hbn_sub/
example_pos:-2993200   271500 -1000000
N_dwell:200
sampling_period:15
make_plots:1
m1:0.98976
m2:-0.0073571
==========
Detector params:
Sampling period (ms): 15.000000
N dwell: 200.000000
Filament current (A): 1.540000
Filament emission (mA): 1.924434
Solenoid current (A): NaN
Solenoid shim current (A): NaN
Lens params:
0  685
1  300
2  125
3      -0.002
4       -0.01
5       0.012
6         0.8
7         2.1
8         2.8
9  3000
10  1450
11         0.85
12   0
==========
Data:
z(nm),I(A)
200000,7.051e-11,
100000,7.3991e-11,
0,7.4171e-11,
-100000,7.4211e-11,
-200000,7.3748e-11,
-300000,7.47e-11,
-400000,7.513e-11,
-500000,7.9352e-11,
-600000,8.8926e-11,
-700000,1.0636e-10,
-800000,1.3119e-10,
-900000,1.4865e-10,
-1000000,1.3544e-10,
-1100000,1.1021e-10,
-1200000,9.606e-11,
-1300000,8.7222e-11,
-1400000,8.5608e-11,
-1500000,9.3011e-11,
-1600000,1.1088e-10,
-1700000,1.2548e-10,
-1800000,1.303e-10,
-1900000,1.225e-10,
-2000000,1.0653e-10,
-2100000,8.7806e-11,
-2200000,8.1013e-11,
-2300000,8.3577e-11,
-2400000,9.6904e-11,
-2500000,1.1805e-10,
-2600000,1.4199e-10,
-2700000,1.5952e-10,
-2800000,1.5499e-10,
-2900000,1.3498e-10,
-3000000,1.1063e-10,
-3100000,8.8046e-11,
-3200000,7.7267e-11,
-3300000,6.9361e-11,
-3400000,6.9665e-11,
-3500000,6.9701e-11,
-3600000,7.0927e-11,
-3700000,7.1774e-11,
-3800000,6.9765e-11,
-3900000,6.6841e-11,
-4000000,6.2117e-11,
-4100000,5.8181e-11,
-4200000,5.3682e-11,
-4300000,5.0396e-11,
-4400000,4.7929e-11,
-4500000,4.4781e-11,
-4600000,4.3851e-11,
-4700000,4.2627e-11,
-4800000,4.1629e-11,
-4900000,3.9991e-11,
-5000000,4.003e-11,
-5100000,3.8961e-11,
-5200000,3.8308e-11,
-5300000,3.6136e-11,
-5400000,3.7136e-11,
-5500000,3.5854e-11,
-5600000,3.7868e-11,
-5700000,3.5653e-11,
-5800000,3.3929e-11,
-5900000,3.246e-11,
-6000000,3.3383e-11,
-5950000,3.3356e-11,
-5850000,3.3488e-11,
-5750000,3.4671e-11,
-5650000,3.6285e-11,
-5550000,3.7848e-11,
-5450000,3.5264e-11,
-5350000,3.6961e-11,
-5250000,3.787e-11,
-5150000,3.8854e-11,
-5050000,3.9069e-11,
-4950000,4.052e-11,
-4850000,4.1911e-11,
-4750000,4.2874e-11,
-4650000,4.2239e-11,
-4550000,4.5247e-11,
-4450000,4.7699e-11,
-4350000,4.9822e-11,
-4250000,5.2922e-11,
-4150000,5.6163e-11,
-4050000,6.1152e-11,
-3950000,6.5206e-11,
-3850000,6.9302e-11,
-3750000,6.9651e-11,
-3650000,7.1735e-11,
-3550000,6.9172e-11,
-3450000,6.9603e-11,
-3350000,7.0649e-11,
-3250000,7.1348e-11,
-3150000,8.0826e-11,
-3050000,9.6091e-11,
-2950000,1.1751e-10,
-2850000,1.4125e-10,
-2750000,1.5142e-10,
-2650000,1.4844e-10,
-2550000,1.3052e-10,
-2450000,1.0613e-10,
-2350000,9.1751e-11,
-2250000,8.1011e-11,
-2150000,8.2472e-11,
-2050000,9.4833e-11,
-1950000,1.1484e-10,
-1850000,1.287e-10,
-1750000,1.3199e-10,
-1650000,1.2485e-10,
-1550000,1.0314e-10,
-1450000,9.045e-11,
-1350000,8.7412e-11,
-1250000,9.1346e-11,
-1150000,1.026e-10,
-1050000,1.1841e-10,
-950000,1.4544e-10,
-850000,1.4698e-10,
-750000,1.2427e-10,
-650000,1.0157e-10,
-550000,8.6232e-11,
-450000,7.8621e-11,
-350000,7.4495e-11,
-250000,7.4844e-11,
-150000,7.4428e-11,
-50000,7.4184e-11,
50000,7.5444e-11,
150000,7.3204e-11,
