General parameters:
Start time: 2023              8             18             15             35      38.223645
Finish time: 2023              8             18             15             41      35.653325
Dwell time (ms): 3000.000000
Source chamber pressure: 2.00e+3
Differential chamber pressure: 7.89e-07
Sample chamber pressure: 3.88e-08
Example position (nm): -4039813.234975,-81193.821045,-1000000.000000
Rotation angle (udeg): 45000180.000000
==========
Instrument status: 
0:Data Directory:/icon/data/2023_08_MoS2_5um_hbn_sub/
1:Sample:MoS2
2:Comments:no
3:PinholePlate:#C13
4:z_Zero:4200
5:Operator:djw77/nav31/kw570
==========
zscan inputs: 
z_sep:50000
z_range:200000 -5000000
data_path:/icon/data/2023_08_MoS2_5um_hbn_sub/
example_pos:-4039813.235     -81193.821045          -1000000
N_dwell:200
sampling_period:15
make_plots:1
m1:0.98976
m2:-0.0073571
==========
Detector params:
Sampling period (ms): 15.000000
N dwell: 200.000000
Filament current (A): 1.540000
Filament emission (mA): 1.656306
Solenoid current (A): NaN
Solenoid shim current (A): NaN
Lens params:
0  685
1  300
2  125
3      -0.002
4       -0.01
5       0.012
6         0.8
7         2.1
8         2.8
9  3000
10  1450
11         0.85
12   0
==========
Data:
z(nm),I(A)
200000,3.4578e-11,
100000,3.4475e-11,
0,3.4394e-11,
-100000,3.535e-11,
-200000,3.4853e-11,
-300000,3.5196e-11,
-400000,3.6258e-11,
-500000,3.5465e-11,
-600000,3.5919e-11,
-700000,3.6738e-11,
-800000,3.7566e-11,
-900000,3.7441e-11,
-1000000,3.8835e-11,
-1100000,3.8461e-11,
-1200000,3.8264e-11,
-1300000,3.988e-11,
-1400000,3.9023e-11,
-1500000,3.952e-11,
-1600000,3.9707e-11,
-1700000,3.9461e-11,
-1800000,4.0193e-11,
-1900000,3.9593e-11,
-2000000,3.9826e-11,
-2100000,3.9682e-11,
-2200000,3.925e-11,
-2300000,3.8684e-11,
-2400000,3.862e-11,
-2500000,3.8535e-11,
-2600000,3.8317e-11,
-2700000,3.7766e-11,
-2800000,3.7345e-11,
-2900000,3.7676e-11,
-3000000,3.5878e-11,
-3100000,3.5399e-11,
-3200000,3.4953e-11,
-3300000,3.4081e-11,
-3400000,3.3671e-11,
-3500000,3.2437e-11,
-3600000,3.2874e-11,
-3700000,3.1822e-11,
-3800000,3.1307e-11,
-3900000,3.0821e-11,
-4000000,3.1699e-11,
-4100000,2.9797e-11,
-4200000,2.9256e-11,
-4300000,2.9e-11,
-4400000,2.8472e-11,
-4500000,2.8466e-11,
-4600000,2.7058e-11,
-4700000,2.6461e-11,
-4800000,2.6364e-11,
-4900000,2.5861e-11,
-5000000,2.5657e-11,
-4950000,2.5394e-11,
-4850000,2.5738e-11,
-4750000,2.6496e-11,
-4650000,2.7262e-11,
-4550000,2.7172e-11,
-4450000,2.8177e-11,
-4350000,2.8659e-11,
-4250000,2.9484e-11,
-4150000,3.0038e-11,
-4050000,3.0137e-11,
-3950000,2.987e-11,
-3850000,3.1154e-11,
-3750000,3.1046e-11,
-3650000,3.2396e-11,
-3550000,3.3446e-11,
-3450000,3.2864e-11,
-3350000,3.3818e-11,
-3250000,3.4577e-11,
-3150000,3.5707e-11,
-3050000,3.4841e-11,
-2950000,3.6166e-11,
-2850000,3.6808e-11,
-2750000,3.7355e-11,
-2650000,3.7751e-11,
-2550000,3.7999e-11,
-2450000,3.8154e-11,
-2350000,3.8507e-11,
-2250000,3.974e-11,
-2150000,3.8452e-11,
-2050000,4.0134e-11,
-1950000,3.9286e-11,
-1850000,4.0715e-11,
-1750000,3.9846e-11,
-1650000,3.9526e-11,
-1550000,4.0395e-11,
-1450000,4.0051e-11,
-1350000,3.9569e-11,
-1250000,3.8726e-11,
-1150000,3.8658e-11,
-1050000,3.7979e-11,
-950000,3.7223e-11,
-850000,3.7335e-11,
-750000,3.7464e-11,
-650000,3.7186e-11,
-550000,3.617e-11,
-450000,3.6385e-11,
-350000,3.5379e-11,
-250000,3.4579e-11,
-150000,3.4426e-11,
-50000,3.4589e-11,
50000,3.4308e-11,
150000,3.3769e-11,
