General parameters:
Start time: 2023              9             21             23             18       13.44093
Finish time: 2023              9             21             23             27      16.089771
Dwell time (ms): 3750.000000
Source chamber pressure: Error-S
Differential chamber pressure: 7.85e-07
Sample chamber pressure: 3.67e-08
Example position (nm): -4597000.000000,230000.000000,-2700000.000000
Rotation angle (udeg): 124999900.000000
==========
Instrument status: 
0:Data Directory:/icon/data/2023_08_MoS2_5um_hbn_sub/
1:Sample:MoS2
2:Comments:no
3:PinholePlate:#C13
4:z_Zero:4200
5:Operator:djw77/nav31/kw570
==========
zscan inputs: 
z_sep:50000
z_range:500000 -6000000
data_path:/icon/data/2023_08_MoS2_5um_hbn_sub/
example_pos:-4597000   230000 -2700000
N_dwell:250
sampling_period:15
make_plots:1
m1:0.98976
m2:-0.0073571
==========
Detector params:
Sampling period (ms): 15.000000
N dwell: 250.000000
Filament current (A): 1.540000
Filament emission (mA): 2.966166
Solenoid current (A): NaN
Solenoid shim current (A): NaN
Lens params:
0  685
1  300
2  125
3      -0.002
4       -0.01
5       0.012
6         0.8
7         2.1
8         2.8
9  3000
10  1450
11         0.85
12   0
==========
Data:
z(nm),I(A)
500000,2.1504e-10,
400000,2.2941e-10,
300000,2.3631e-10,
200000,2.6441e-10,
100000,2.8057e-10,
0,2.8229e-10,
-100000,2.834e-10,
-200000,2.9364e-10,
-300000,3.0528e-10,
-400000,3.2627e-10,
-500000,3.3101e-10,
-600000,3.2724e-10,
-700000,3.6647e-10,
-800000,3.9303e-10,
-900000,4.0132e-10,
-1000000,3.972e-10,
-1100000,3.8694e-10,
-1200000,3.7141e-10,
-1300000,3.5535e-10,
-1400000,3.5674e-10,
-1500000,3.5503e-10,
-1600000,3.5192e-10,
-1700000,3.5086e-10,
-1800000,3.4136e-10,
-1900000,3.3292e-10,
-2000000,3.2961e-10,
-2100000,3.2557e-10,
-2200000,3.2698e-10,
-2300000,3.2808e-10,
-2400000,3.253e-10,
-2500000,3.2675e-10,
-2600000,3.2603e-10,
-2700000,3.229e-10,
-2800000,3.1377e-10,
-2900000,3.0371e-10,
-3000000,2.8807e-10,
-3100000,2.7724e-10,
-3200000,2.6633e-10,
-3300000,2.5765e-10,
-3400000,2.4474e-10,
-3500000,2.3571e-10,
-3600000,2.2756e-10,
-3700000,2.1985e-10,
-3800000,2.1131e-10,
-3900000,2.0382e-10,
-4000000,1.9486e-10,
-4100000,1.8757e-10,
-4200000,1.7805e-10,
-4300000,1.71e-10,
-4400000,1.6325e-10,
-4500000,1.5464e-10,
-4600000,1.479e-10,
-4700000,1.4476e-10,
-4800000,1.4027e-10,
-4900000,1.3595e-10,
-5000000,1.3377e-10,
-5100000,1.2894e-10,
-5200000,1.2778e-10,
-5300000,1.2402e-10,
-5400000,1.2138e-10,
-5500000,1.2274e-10,
-5600000,1.2275e-10,
-5700000,1.1781e-10,
-5800000,1.1566e-10,
-5900000,1.1154e-10,
-6000000,1.0945e-10,
-5950000,1.114e-10,
-5850000,1.1227e-10,
-5750000,1.1732e-10,
-5650000,1.1951e-10,
-5550000,1.2348e-10,
-5450000,1.2418e-10,
-5350000,1.2432e-10,
-5250000,1.2777e-10,
-5150000,1.285e-10,
-5050000,1.3182e-10,
-4950000,1.3532e-10,
-4850000,1.3853e-10,
-4750000,1.4193e-10,
-4650000,1.4622e-10,
-4550000,1.5236e-10,
-4450000,1.588e-10,
-4350000,1.6509e-10,
-4250000,1.7235e-10,
-4150000,1.8222e-10,
-4050000,1.9437e-10,
-3950000,2.012e-10,
-3850000,2.065e-10,
-3750000,2.1469e-10,
-3650000,2.201e-10,
-3550000,2.3212e-10,
-3450000,2.392e-10,
-3350000,2.493e-10,
-3250000,2.5776e-10,
-3150000,2.7066e-10,
-3050000,2.8052e-10,
-2950000,2.9405e-10,
-2850000,3.0561e-10,
-2750000,3.1632e-10,
-2650000,3.2068e-10,
-2550000,3.2456e-10,
-2450000,3.2526e-10,
-2350000,3.2152e-10,
-2250000,3.17e-10,
-2150000,3.1612e-10,
-2050000,3.1518e-10,
-1950000,3.157e-10,
-1850000,3.1683e-10,
-1750000,3.3591e-10,
-1650000,3.4405e-10,
-1550000,3.5109e-10,
-1450000,3.4821e-10,
-1350000,3.5315e-10,
-1250000,3.5616e-10,
-1150000,3.6844e-10,
-1050000,3.9098e-10,
-950000,3.9824e-10,
-850000,3.9105e-10,
-750000,3.6521e-10,
-650000,3.221e-10,
-550000,3.1785e-10,
-450000,3.1317e-10,
-350000,2.8671e-10,
-250000,2.7219e-10,
-150000,2.7503e-10,
-50000,2.594e-10,
50000,2.5101e-10,
150000,2.4137e-10,
250000,2.2771e-10,
350000,2.1493e-10,
450000,1.9985e-10,
