General parameters:
Start time: 2023              8             28              2              3       7.549007
Finish time: 2023              8             28              2              9       3.646766
Dwell time (ms): 3000.000000
Source chamber pressure: 2.00e+3
Differential chamber pressure: 6.36e-07
Sample chamber pressure: 3.62e-08
Example position (nm): -4037943.301358,-11188.603987,-1000000.000000
Rotation angle (udeg): 49999880.000000
==========
Instrument status: 
0:Data Directory:/icon/data/2023_08_MoS2_5um_hbn_sub/
1:Sample:MoS2
2:Comments:no
3:PinholePlate:#C13
4:z_Zero:4200
5:Operator:djw77/nav31/kw570
==========
zscan inputs: 
z_sep:50000
z_range:200000 -5000000
data_path:/icon/data/2023_08_MoS2_5um_hbn_sub/
example_pos:-4037943.3014     -11188.603987          -1000000
N_dwell:200
sampling_period:15
make_plots:1
m1:0.98976
m2:-0.0073571
==========
Detector params:
Sampling period (ms): 15.000000
N dwell: 200.000000
Filament current (A): 1.540000
Filament emission (mA): 1.898100
Solenoid current (A): NaN
Solenoid shim current (A): NaN
Lens params:
0  685
1  300
2  125
3      -0.002
4       -0.01
5       0.012
6         0.8
7         2.1
8         2.8
9  3000
10  1450
11         0.85
12   0
==========
Data:
z(nm),I(A)
200000,4.1858e-11,
100000,4.256e-11,
0,4.199e-11,
-100000,4.299e-11,
-200000,4.2544e-11,
-300000,4.3325e-11,
-400000,4.3229e-11,
-500000,4.4051e-11,
-600000,4.4985e-11,
-700000,4.5628e-11,
-800000,4.5328e-11,
-900000,4.68e-11,
-1000000,4.7455e-11,
-1100000,4.8624e-11,
-1200000,4.7896e-11,
-1300000,4.8647e-11,
-1400000,4.9066e-11,
-1500000,4.9105e-11,
-1600000,4.9617e-11,
-1700000,5.0808e-11,
-1800000,4.9801e-11,
-1900000,4.9146e-11,
-2000000,4.9828e-11,
-2100000,4.9731e-11,
-2200000,4.9028e-11,
-2300000,4.8411e-11,
-2400000,4.863e-11,
-2500000,4.6271e-11,
-2600000,4.8054e-11,
-2700000,4.6358e-11,
-2800000,4.552e-11,
-2900000,4.5968e-11,
-3000000,4.5872e-11,
-3100000,4.3884e-11,
-3200000,4.3078e-11,
-3300000,4.284e-11,
-3400000,4.1619e-11,
-3500000,4.1844e-11,
-3600000,4.0011e-11,
-3700000,3.9631e-11,
-3800000,3.9575e-11,
-3900000,3.9291e-11,
-4000000,3.8922e-11,
-4100000,3.7547e-11,
-4200000,3.6007e-11,
-4300000,3.5999e-11,
-4400000,3.5474e-11,
-4500000,3.4814e-11,
-4600000,3.4314e-11,
-4700000,3.3602e-11,
-4800000,3.3008e-11,
-4900000,3.2288e-11,
-5000000,3.2037e-11,
-4950000,3.2516e-11,
-4850000,3.2725e-11,
-4750000,3.43e-11,
-4650000,3.3905e-11,
-4550000,3.4105e-11,
-4450000,3.4975e-11,
-4350000,3.5703e-11,
-4250000,3.5318e-11,
-4150000,3.6776e-11,
-4050000,3.7609e-11,
-3950000,3.8729e-11,
-3850000,3.8349e-11,
-3750000,3.9139e-11,
-3650000,4.1345e-11,
-3550000,4.1615e-11,
-3450000,4.235e-11,
-3350000,4.3478e-11,
-3250000,4.2702e-11,
-3150000,4.3331e-11,
-3050000,4.3941e-11,
-2950000,4.5296e-11,
-2850000,4.5368e-11,
-2750000,4.5855e-11,
-2650000,4.6684e-11,
-2550000,4.7669e-11,
-2450000,4.9153e-11,
-2350000,4.9299e-11,
-2250000,4.9307e-11,
-2150000,5.0218e-11,
-2050000,4.9543e-11,
-1950000,5.0029e-11,
-1850000,5.0009e-11,
-1750000,4.9744e-11,
-1650000,4.7876e-11,
-1550000,4.8939e-11,
-1450000,4.9079e-11,
-1350000,4.8731e-11,
-1250000,4.7982e-11,
-1150000,4.8881e-11,
-1050000,4.7599e-11,
-950000,4.8011e-11,
-850000,4.5511e-11,
-750000,4.5533e-11,
-650000,4.5704e-11,
-550000,4.4598e-11,
-450000,4.3619e-11,
-350000,4.3591e-11,
-250000,4.2203e-11,
-150000,4.3397e-11,
-50000,4.1032e-11,
50000,4.0882e-11,
150000,4.2649e-11,
