General parameters:
Start time: 2023              8             23             12             47      14.157889
Finish time: 2023              8             23             12             53       9.656834
Dwell time (ms): 3000.000000
Source chamber pressure: 2.00e+3
Differential chamber pressure: 7.72e-07
Sample chamber pressure: 3.83e-08
Example position (nm): -3812993.385083,181743.178795,-1000000.000000
Rotation angle (udeg): 64999920.000000
==========
Instrument status: 
0:Data Directory:/icon/data/2023_08_MoS2_5um_hbn_sub/
1:Sample:MoS2
2:Comments:no
3:PinholePlate:#C13
4:z_Zero:4200
5:Operator:djw77/nav31/kw570
==========
zscan inputs: 
z_sep:50000
z_range:200000 -5000000
data_path:/icon/data/2023_08_MoS2_5um_hbn_sub/
example_pos:-3812993.3851       181743.1788          -1000000
N_dwell:200
sampling_period:15
make_plots:1
m1:0.98976
m2:-0.0073571
==========
Detector params:
Sampling period (ms): 15.000000
N dwell: 200.000000
Filament current (A): 1.540000
Filament emission (mA): 1.779084
Solenoid current (A): NaN
Solenoid shim current (A): NaN
Lens params:
0  685
1  300
2  125
3      -0.002
4       -0.01
5       0.012
6         0.8
7         2.1
8         2.8
9  3000
10  1450
11         0.85
12   0
==========
Data:
z(nm),I(A)
200000,3.532e-11,
100000,3.4874e-11,
0,3.5112e-11,
-100000,3.5324e-11,
-200000,3.5072e-11,
-300000,3.5155e-11,
-400000,3.5534e-11,
-500000,3.5343e-11,
-600000,3.6155e-11,
-700000,3.6721e-11,
-800000,3.6868e-11,
-900000,3.8155e-11,
-1000000,3.803e-11,
-1100000,3.8153e-11,
-1200000,3.8306e-11,
-1300000,3.8989e-11,
-1400000,3.9903e-11,
-1500000,4.0154e-11,
-1600000,4.0039e-11,
-1700000,4.0737e-11,
-1800000,4.0505e-11,
-1900000,3.9201e-11,
-2000000,3.972e-11,
-2100000,3.8658e-11,
-2200000,3.9382e-11,
-2300000,3.8892e-11,
-2400000,3.8914e-11,
-2500000,3.863e-11,
-2600000,3.8635e-11,
-2700000,3.8202e-11,
-2800000,3.6961e-11,
-2900000,3.6698e-11,
-3000000,3.627e-11,
-3100000,3.6246e-11,
-3200000,3.5251e-11,
-3300000,3.4721e-11,
-3400000,3.4393e-11,
-3500000,3.3015e-11,
-3600000,3.3346e-11,
-3700000,3.279e-11,
-3800000,3.12e-11,
-3900000,3.029e-11,
-4000000,3.05e-11,
-4100000,3.0051e-11,
-4200000,2.9694e-11,
-4300000,2.8919e-11,
-4400000,2.7929e-11,
-4500000,2.8173e-11,
-4600000,2.6782e-11,
-4700000,2.675e-11,
-4800000,2.5708e-11,
-4900000,2.5093e-11,
-5000000,2.4826e-11,
-4950000,2.5471e-11,
-4850000,2.5859e-11,
-4750000,2.66e-11,
-4650000,2.6324e-11,
-4550000,2.7893e-11,
-4450000,2.7664e-11,
-4350000,2.9408e-11,
-4250000,2.8475e-11,
-4150000,2.9579e-11,
-4050000,3.0902e-11,
-3950000,2.9637e-11,
-3850000,3.0546e-11,
-3750000,3.1836e-11,
-3650000,3.2442e-11,
-3550000,3.2532e-11,
-3450000,3.3433e-11,
-3350000,3.354e-11,
-3250000,3.501e-11,
-3150000,3.5544e-11,
-3050000,3.56e-11,
-2950000,3.6888e-11,
-2850000,3.6954e-11,
-2750000,3.8167e-11,
-2650000,3.7618e-11,
-2550000,3.8288e-11,
-2450000,3.8221e-11,
-2350000,3.8841e-11,
-2250000,3.9038e-11,
-2150000,3.9419e-11,
-2050000,3.9832e-11,
-1950000,3.9502e-11,
-1850000,4.0661e-11,
-1750000,4.0691e-11,
-1650000,3.9768e-11,
-1550000,3.9909e-11,
-1450000,3.8897e-11,
-1350000,3.9853e-11,
-1250000,3.8372e-11,
-1150000,3.8641e-11,
-1050000,3.8693e-11,
-950000,3.9407e-11,
-850000,3.7551e-11,
-750000,3.7459e-11,
-650000,3.7833e-11,
-550000,3.6526e-11,
-450000,3.615e-11,
-350000,3.5446e-11,
-250000,3.5774e-11,
-150000,3.4879e-11,
-50000,3.5109e-11,
50000,3.5452e-11,
150000,3.6173e-11,
