General parameters:
Start time: 2023              8             29              1             18      21.089682
Finish time: 2023              8             29              1             25      22.804649
Dwell time (ms): 3000.000000
Source chamber pressure: 2.00e+3
Differential chamber pressure: 6.08e-07
Sample chamber pressure: 3.62e-08
Example position (nm): -4209200.000000,-240400.000000,-1000000.000000
Rotation angle (udeg): 30000665.000000
==========
Instrument status: 
0:Data Directory:/icon/data/2023_08_MoS2_5um_hbn_sub/
1:Sample:MoS2
2:Comments:no
3:PinholePlate:#C13
4:z_Zero:4200
5:Operator:djw77/nav31/kw570
==========
zscan inputs: 
z_sep:50000
z_range:200000 -6000000
data_path:/icon/data/2023_08_MoS2_5um_hbn_sub/
example_pos:-4209200  -240400 -1000000
N_dwell:200
sampling_period:15
make_plots:1
m1:0.98976
m2:-0.0073571
==========
Detector params:
Sampling period (ms): 15.000000
N dwell: 200.000000
Filament current (A): 1.540000
Filament emission (mA): 1.914858
Solenoid current (A): NaN
Solenoid shim current (A): NaN
Lens params:
0  685
1  300
2  125
3      -0.002
4       -0.01
5       0.012
6         0.8
7         2.1
8         2.8
9  3000
10  1450
11         0.85
12   0
==========
Data:
z(nm),I(A)
200000,4.7899e-11,
100000,4.7785e-11,
0,4.8115e-11,
-100000,4.7404e-11,
-200000,4.87e-11,
-300000,4.8597e-11,
-400000,4.9393e-11,
-500000,5.0513e-11,
-600000,5.1305e-11,
-700000,5.2091e-11,
-800000,5.3663e-11,
-900000,5.349e-11,
-1000000,5.4007e-11,
-1100000,5.4489e-11,
-1200000,5.3685e-11,
-1300000,5.4652e-11,
-1400000,5.5198e-11,
-1500000,5.6757e-11,
-1600000,5.5834e-11,
-1700000,5.6312e-11,
-1800000,5.5565e-11,
-1900000,5.6677e-11,
-2000000,5.5469e-11,
-2100000,5.5032e-11,
-2200000,5.5791e-11,
-2300000,5.571e-11,
-2400000,5.4219e-11,
-2500000,5.3732e-11,
-2600000,5.4833e-11,
-2700000,5.2662e-11,
-2800000,5.2212e-11,
-2900000,5.2145e-11,
-3000000,5.115e-11,
-3100000,4.9273e-11,
-3200000,4.9554e-11,
-3300000,4.8555e-11,
-3400000,4.8507e-11,
-3500000,4.8306e-11,
-3600000,4.6337e-11,
-3700000,4.7297e-11,
-3800000,4.5257e-11,
-3900000,4.4066e-11,
-4000000,4.3475e-11,
-4100000,4.2905e-11,
-4200000,4.1776e-11,
-4300000,4.1467e-11,
-4400000,4.052e-11,
-4500000,4.0176e-11,
-4600000,3.9208e-11,
-4700000,3.8754e-11,
-4800000,3.7302e-11,
-4900000,3.7767e-11,
-5000000,3.6623e-11,
-5100000,3.6096e-11,
-5200000,3.5759e-11,
-5300000,3.4451e-11,
-5400000,3.4492e-11,
-5500000,3.4247e-11,
-5600000,3.3565e-11,
-5700000,3.34e-11,
-5800000,3.3002e-11,
-5900000,3.208e-11,
-6000000,3.1633e-11,
-5950000,3.2192e-11,
-5850000,3.2651e-11,
-5750000,3.3329e-11,
-5650000,3.2688e-11,
-5550000,3.4056e-11,
-5450000,3.5328e-11,
-5350000,3.4182e-11,
-5250000,3.5337e-11,
-5150000,3.5781e-11,
-5050000,3.6692e-11,
-4950000,3.6646e-11,
-4850000,3.7471e-11,
-4750000,3.8345e-11,
-4650000,3.827e-11,
-4550000,3.9522e-11,
-4450000,3.9794e-11,
-4350000,4.0645e-11,
-4250000,4.1899e-11,
-4150000,4.1734e-11,
-4050000,4.3828e-11,
-3950000,4.4064e-11,
-3850000,4.5231e-11,
-3750000,4.6807e-11,
-3650000,4.7084e-11,
-3550000,4.8044e-11,
-3450000,4.828e-11,
-3350000,4.9312e-11,
-3250000,4.9776e-11,
-3150000,5.1303e-11,
-3050000,5.2212e-11,
-2950000,5.2421e-11,
-2850000,5.3177e-11,
-2750000,5.3214e-11,
-2650000,5.4491e-11,
-2550000,5.4314e-11,
-2450000,5.4966e-11,
-2350000,5.4787e-11,
-2250000,5.6632e-11,
-2150000,5.6818e-11,
-2050000,5.6477e-11,
-1950000,5.5492e-11,
-1850000,5.717e-11,
-1750000,5.6546e-11,
-1650000,5.5675e-11,
-1550000,5.7243e-11,
-1450000,5.7146e-11,
-1350000,5.5759e-11,
-1250000,5.4858e-11,
-1150000,5.4334e-11,
-1050000,5.3748e-11,
-950000,5.3415e-11,
-850000,5.2953e-11,
-750000,5.3378e-11,
-650000,5.2269e-11,
-550000,5.0876e-11,
-450000,5.0958e-11,
-350000,5.0054e-11,
-250000,4.9593e-11,
-150000,4.7792e-11,
-50000,4.8625e-11,
50000,4.6651e-11,
150000,4.854e-11,
