General parameters:
Start time: 2023              8             22             12             24      37.307885
Finish time: 2023              8             22             12             30      32.500014
Dwell time (ms): 3000.000000
Source chamber pressure: 2.00e+3
Differential chamber pressure: 7.97e-07
Sample chamber pressure: 3.84e-08
Example position (nm): -3521989.422649,244657.893015,-1000000.000000
Rotation angle (udeg): 82500085.000000
==========
Instrument status: 
0:Data Directory:/icon/data/2023_08_MoS2_5um_hbn_sub/
1:Sample:MoS2
2:Comments:no
3:PinholePlate:#C13
4:z_Zero:4200
5:Operator:djw77/nav31/kw570
==========
zscan inputs: 
z_sep:50000
z_range:200000 -5000000
data_path:/icon/data/2023_08_MoS2_5um_hbn_sub/
example_pos:-3521989.4226      244657.89302          -1000000
N_dwell:200
sampling_period:15
make_plots:0
m1:0.98976
m2:-0.0073571
==========
Detector params:
Sampling period (ms): 15.000000
N dwell: 200.000000
Filament current (A): 1.540000
Filament emission (mA): 1.741806
Solenoid current (A): NaN
Solenoid shim current (A): NaN
Lens params:
0  685
1  300
2  125
3      -0.002
4       -0.01
5       0.012
6         0.8
7         2.1
8         2.8
9  3000
10  1450
11         0.85
12   0
==========
Data:
z(nm),I(A)
200000,4.2781e-11,
100000,4.3784e-11,
0,4.2715e-11,
-100000,4.2904e-11,
-200000,4.3305e-11,
-300000,4.25e-11,
-400000,4.3467e-11,
-500000,4.3652e-11,
-600000,4.5286e-11,
-700000,4.5262e-11,
-800000,4.6606e-11,
-900000,4.7348e-11,
-1000000,4.9565e-11,
-1100000,4.8879e-11,
-1200000,4.7673e-11,
-1300000,4.7361e-11,
-1400000,4.7949e-11,
-1500000,4.8637e-11,
-1600000,4.808e-11,
-1700000,4.8279e-11,
-1800000,4.8799e-11,
-1900000,4.8209e-11,
-2000000,4.8223e-11,
-2100000,4.7807e-11,
-2200000,4.7504e-11,
-2300000,4.7083e-11,
-2400000,4.712e-11,
-2500000,4.6196e-11,
-2600000,4.6471e-11,
-2700000,4.6199e-11,
-2800000,4.4728e-11,
-2900000,4.5074e-11,
-3000000,4.4036e-11,
-3100000,4.3265e-11,
-3200000,4.4377e-11,
-3300000,4.4893e-11,
-3400000,4.5122e-11,
-3500000,4.5795e-11,
-3600000,4.2971e-11,
-3700000,4.127e-11,
-3800000,4.0437e-11,
-3900000,3.7685e-11,
-4000000,3.5274e-11,
-4100000,3.3855e-11,
-4200000,3.2568e-11,
-4300000,3.2018e-11,
-4400000,3.1507e-11,
-4500000,3.1124e-11,
-4600000,3.0949e-11,
-4700000,3.1547e-11,
-4800000,3.0949e-11,
-4900000,3.0142e-11,
-5000000,2.9927e-11,
-4950000,3.0869e-11,
-4850000,3.0311e-11,
-4750000,3.1222e-11,
-4650000,3.1645e-11,
-4550000,3.2503e-11,
-4450000,3.1656e-11,
-4350000,3.1918e-11,
-4250000,3.3293e-11,
-4150000,3.3168e-11,
-4050000,3.4367e-11,
-3950000,3.6323e-11,
-3850000,3.8823e-11,
-3750000,4.1134e-11,
-3650000,4.3598e-11,
-3550000,4.5473e-11,
-3450000,4.7183e-11,
-3350000,4.617e-11,
-3250000,4.4927e-11,
-3150000,4.458e-11,
-3050000,4.4448e-11,
-2950000,4.5289e-11,
-2850000,4.5858e-11,
-2750000,4.6486e-11,
-2650000,4.8987e-11,
-2550000,4.7733e-11,
-2450000,4.8331e-11,
-2350000,4.955e-11,
-2250000,5.0678e-11,
-2150000,5.1259e-11,
-2050000,5.0382e-11,
-1950000,4.9691e-11,
-1850000,5.0062e-11,
-1750000,4.8863e-11,
-1650000,4.9961e-11,
-1550000,4.948e-11,
-1450000,4.8272e-11,
-1350000,4.8314e-11,
-1250000,4.8972e-11,
-1150000,5.0627e-11,
-1050000,6.0776e-11,
-950000,6.2595e-11,
-850000,5.2023e-11,
-750000,4.5999e-11,
-650000,4.4466e-11,
-550000,4.3765e-11,
-450000,4.4091e-11,
-350000,4.4677e-11,
-250000,4.2428e-11,
-150000,4.2735e-11,
-50000,4.2686e-11,
50000,4.2877e-11,
150000,4.3902e-11,
