General parameters:
Start time: 2023              8             22              3             10      22.111729
Finish time: 2023              8             22              3             16      19.778874
Dwell time (ms): 3000.000000
Source chamber pressure: 2.00e+3
Differential chamber pressure: 7.99e-07
Sample chamber pressure: 3.79e-08
Example position (nm): -3030327.084709,268017.556962,-1000000.000000
Rotation angle (udeg): 119999965.000000
==========
Instrument status: 
0:Data Directory:/icon/data/2023_08_MoS2_5um_hbn_sub/
1:Sample:MoS2
2:Comments:no
3:PinholePlate:#C13
4:z_Zero:4200
5:Operator:djw77/nav31/kw570
==========
zscan inputs: 
z_sep:50000
z_range:200000 -5000000
data_path:/icon/data/2023_08_MoS2_5um_hbn_sub/
example_pos:-3030327.0847      268017.55696          -1000000
N_dwell:200
sampling_period:15
make_plots:0
m1:0.98976
m2:-0.0073571
==========
Detector params:
Sampling period (ms): 15.000000
N dwell: 200.000000
Filament current (A): 1.540000
Filament emission (mA): 1.753776
Solenoid current (A): NaN
Solenoid shim current (A): NaN
Lens params:
0  685
1  300
2  125
3      -0.002
4       -0.01
5       0.012
6         0.8
7         2.1
8         2.8
9  3000
10  1450
11         0.85
12   0
==========
Data:
z(nm),I(A)
200000,4.3059e-11,
100000,4.2802e-11,
0,4.3697e-11,
-100000,4.3479e-11,
-200000,4.3617e-11,
-300000,4.3155e-11,
-400000,4.3885e-11,
-500000,4.4424e-11,
-600000,4.456e-11,
-700000,4.4645e-11,
-800000,4.4599e-11,
-900000,4.5415e-11,
-1000000,4.4122e-11,
-1100000,4.4416e-11,
-1200000,4.5834e-11,
-1300000,4.5955e-11,
-1400000,4.4933e-11,
-1500000,4.5147e-11,
-1600000,4.6325e-11,
-1700000,4.6027e-11,
-1800000,4.5661e-11,
-1900000,4.6093e-11,
-2000000,4.5424e-11,
-2100000,4.5114e-11,
-2200000,4.5454e-11,
-2300000,4.5176e-11,
-2400000,4.4407e-11,
-2500000,4.4127e-11,
-2600000,4.2485e-11,
-2700000,4.2894e-11,
-2800000,4.1745e-11,
-2900000,4.0701e-11,
-3000000,3.941e-11,
-3100000,4.1454e-11,
-3200000,3.9909e-11,
-3300000,3.8597e-11,
-3400000,3.8802e-11,
-3500000,3.7585e-11,
-3600000,3.6702e-11,
-3700000,3.6757e-11,
-3800000,3.5184e-11,
-3900000,3.5156e-11,
-4000000,3.4202e-11,
-4100000,3.3268e-11,
-4200000,3.29e-11,
-4300000,3.3064e-11,
-4400000,3.0982e-11,
-4500000,3.0533e-11,
-4600000,3.1275e-11,
-4700000,2.9984e-11,
-4800000,3.0069e-11,
-4900000,2.9073e-11,
-5000000,2.8553e-11,
-4950000,2.8448e-11,
-4850000,2.8964e-11,
-4750000,3.0339e-11,
-4650000,3.041e-11,
-4550000,3.1133e-11,
-4450000,3.2134e-11,
-4350000,3.2303e-11,
-4250000,3.311e-11,
-4150000,3.2643e-11,
-4050000,3.3999e-11,
-3950000,3.4758e-11,
-3850000,3.5492e-11,
-3750000,3.5551e-11,
-3650000,3.7212e-11,
-3550000,3.7727e-11,
-3450000,3.8327e-11,
-3350000,3.8729e-11,
-3250000,3.9496e-11,
-3150000,3.9179e-11,
-3050000,4.0572e-11,
-2950000,4.1533e-11,
-2850000,4.2244e-11,
-2750000,4.2892e-11,
-2650000,4.2913e-11,
-2550000,4.3662e-11,
-2450000,4.3763e-11,
-2350000,4.4345e-11,
-2250000,4.4341e-11,
-2150000,4.5149e-11,
-2050000,4.5795e-11,
-1950000,4.5055e-11,
-1850000,4.6035e-11,
-1750000,4.5067e-11,
-1650000,4.5166e-11,
-1550000,4.5204e-11,
-1450000,4.5362e-11,
-1350000,4.4482e-11,
-1250000,4.5149e-11,
-1150000,4.4992e-11,
-1050000,4.4685e-11,
-950000,4.4719e-11,
-850000,4.4406e-11,
-750000,4.539e-11,
-650000,4.5427e-11,
-550000,4.3625e-11,
-450000,4.3202e-11,
-350000,4.3623e-11,
-250000,4.3911e-11,
-150000,4.3262e-11,
-50000,4.2964e-11,
50000,4.2914e-11,
150000,4.2877e-11,
