General parameters:
Start time: 2023              8             28              4             39      52.971671
Finish time: 2023              8             28              4             45      49.872276
Dwell time (ms): 3000.000000
Source chamber pressure: 2.00e+3
Differential chamber pressure: 6.32e-07
Sample chamber pressure: 3.62e-08
Example position (nm): -3055626.823324,297516.611723,-1000000.000000
Rotation angle (udeg): 115000055.000000
==========
Instrument status: 
0:Data Directory:/icon/data/2023_08_MoS2_5um_hbn_sub/
1:Sample:MoS2
2:Comments:no
3:PinholePlate:#C13
4:z_Zero:4200
5:Operator:djw77/nav31/kw570
==========
zscan inputs: 
z_sep:50000
z_range:200000 -5000000
data_path:/icon/data/2023_08_MoS2_5um_hbn_sub/
example_pos:-3055626.8233      297516.61172          -1000000
N_dwell:200
sampling_period:15
make_plots:1
m1:0.98976
m2:-0.0073571
==========
Detector params:
Sampling period (ms): 15.000000
N dwell: 200.000000
Filament current (A): 1.540000
Filament emission (mA): 1.902888
Solenoid current (A): NaN
Solenoid shim current (A): NaN
Lens params:
0  685
1  300
2  125
3      -0.002
4       -0.01
5       0.012
6         0.8
7         2.1
8         2.8
9  3000
10  1450
11         0.85
12   0
==========
Data:
z(nm),I(A)
200000,5.2815e-11,
100000,5.3983e-11,
0,5.4513e-11,
-100000,5.5828e-11,
-200000,5.5075e-11,
-300000,5.7043e-11,
-400000,5.804e-11,
-500000,6.4119e-11,
-600000,7.5563e-11,
-700000,9.5694e-11,
-800000,1.4214e-10,
-900000,1.6969e-10,
-1000000,1.5191e-10,
-1100000,1.0761e-10,
-1200000,8.4181e-11,
-1300000,7.2013e-11,
-1400000,7.0154e-11,
-1500000,7.802e-11,
-1600000,9.7856e-11,
-1700000,1.1682e-10,
-1800000,1.1891e-10,
-1900000,1.0989e-10,
-2000000,9.0678e-11,
-2100000,7.001e-11,
-2200000,6.1119e-11,
-2300000,6.1323e-11,
-2400000,6.8003e-11,
-2500000,8.0901e-11,
-2600000,9.4197e-11,
-2700000,9.8314e-11,
-2800000,9.2859e-11,
-2900000,7.8566e-11,
-3000000,6.6716e-11,
-3100000,5.9267e-11,
-3200000,5.3592e-11,
-3300000,5.0927e-11,
-3400000,4.832e-11,
-3500000,4.7183e-11,
-3600000,4.5426e-11,
-3700000,4.4285e-11,
-3800000,4.3032e-11,
-3900000,4.1404e-11,
-4000000,3.9326e-11,
-4100000,3.9468e-11,
-4200000,3.7797e-11,
-4300000,3.7579e-11,
-4400000,3.763e-11,
-4500000,3.7933e-11,
-4600000,3.6315e-11,
-4700000,3.6104e-11,
-4800000,3.5297e-11,
-4900000,3.4194e-11,
-5000000,3.3438e-11,
-4950000,3.4233e-11,
-4850000,3.5719e-11,
-4750000,3.5366e-11,
-4650000,3.6726e-11,
-4550000,3.5597e-11,
-4450000,3.783e-11,
-4350000,3.7974e-11,
-4250000,3.6262e-11,
-4150000,3.7411e-11,
-4050000,3.8879e-11,
-3950000,3.9702e-11,
-3850000,4.2041e-11,
-3750000,4.3912e-11,
-3650000,4.4749e-11,
-3550000,4.6005e-11,
-3450000,4.8378e-11,
-3350000,5.0487e-11,
-3250000,5.1719e-11,
-3150000,5.4008e-11,
-3050000,6.203e-11,
-2950000,7.0651e-11,
-2850000,8.517e-11,
-2750000,9.634e-11,
-2650000,9.8505e-11,
-2550000,8.941e-11,
-2450000,7.6226e-11,
-2350000,6.5032e-11,
-2250000,5.9723e-11,
-2150000,6.2843e-11,
-2050000,7.5506e-11,
-1950000,1.0005e-10,
-1850000,1.147e-10,
-1750000,1.2114e-10,
-1650000,1.1185e-10,
-1550000,8.9445e-11,
-1450000,7.3682e-11,
-1350000,6.8448e-11,
-1250000,7.5555e-11,
-1150000,9.1112e-11,
-1050000,1.2305e-10,
-950000,1.6213e-10,
-850000,1.6482e-10,
-750000,1.2166e-10,
-650000,8.5687e-11,
-550000,7.0113e-11,
-450000,6.134e-11,
-350000,5.7332e-11,
-250000,5.5107e-11,
-150000,5.638e-11,
-50000,5.5826e-11,
50000,5.4537e-11,
150000,5.3722e-11,
