General parameters:
Start time: 2023              8             29              4             38      26.600008
Finish time: 2023              8             29              4             45      30.505423
Dwell time (ms): 3000.000000
Source chamber pressure: 2.00e+3
Differential chamber pressure: 6.04e-07
Sample chamber pressure: 3.62e-08
Example position (nm): -3310600.000000,332200.000000,-1000000.000000
Rotation angle (udeg): 99999980.000000
==========
Instrument status: 
0:Data Directory:/icon/data/2023_08_MoS2_5um_hbn_sub/
1:Sample:MoS2
2:Comments:no
3:PinholePlate:#C13
4:z_Zero:4200
5:Operator:djw77/nav31/kw570
==========
zscan inputs: 
z_sep:50000
z_range:200000 -6000000
data_path:/icon/data/2023_08_MoS2_5um_hbn_sub/
example_pos:-3310600   332200 -1000000
N_dwell:200
sampling_period:15
make_plots:1
m1:0.98976
m2:-0.0073571
==========
Detector params:
Sampling period (ms): 15.000000
N dwell: 200.000000
Filament current (A): 1.540000
Filament emission (mA): 1.925460
Solenoid current (A): NaN
Solenoid shim current (A): NaN
Lens params:
0  685
1  300
2  125
3      -0.002
4       -0.01
5       0.012
6         0.8
7         2.1
8         2.8
9  3000
10  1450
11         0.85
12   0
==========
Data:
z(nm),I(A)
200000,6.7295e-11,
100000,6.8692e-11,
0,7.0861e-11,
-100000,7.1398e-11,
-200000,7.1466e-11,
-300000,7.0649e-11,
-400000,7.0876e-11,
-500000,7.7288e-11,
-600000,8.8829e-11,
-700000,1.1375e-10,
-800000,1.5273e-10,
-900000,1.928e-10,
-1000000,1.9919e-10,
-1100000,1.6349e-10,
-1200000,1.2431e-10,
-1300000,1.0123e-10,
-1400000,8.643e-11,
-1500000,8.1423e-11,
-1600000,8.1031e-11,
-1700000,8.2207e-11,
-1800000,7.9872e-11,
-1900000,7.5023e-11,
-2000000,6.9268e-11,
-2100000,6.6543e-11,
-2200000,6.6807e-11,
-2300000,7.2674e-11,
-2400000,7.7211e-11,
-2500000,8.3314e-11,
-2600000,8.4515e-11,
-2700000,7.9977e-11,
-2800000,7.1932e-11,
-2900000,6.6123e-11,
-3000000,6.2113e-11,
-3100000,6.1532e-11,
-3200000,6.2575e-11,
-3300000,6.4395e-11,
-3400000,6.5317e-11,
-3500000,6.3451e-11,
-3600000,6.0607e-11,
-3700000,5.6653e-11,
-3800000,5.278e-11,
-3900000,4.8468e-11,
-4000000,4.6803e-11,
-4100000,4.4278e-11,
-4200000,4.3558e-11,
-4300000,4.2345e-11,
-4400000,4.2295e-11,
-4500000,4.1474e-11,
-4600000,4.3494e-11,
-4700000,4.0901e-11,
-4800000,3.9611e-11,
-4900000,3.9146e-11,
-5000000,3.8264e-11,
-5100000,3.722e-11,
-5200000,3.5804e-11,
-5300000,3.5798e-11,
-5400000,3.7461e-11,
-5500000,3.7751e-11,
-5600000,3.739e-11,
-5700000,3.7182e-11,
-5800000,3.4904e-11,
-5900000,3.4073e-11,
-6000000,3.4711e-11,
-5950000,3.2569e-11,
-5850000,3.433e-11,
-5750000,3.7058e-11,
-5650000,3.692e-11,
-5550000,3.5752e-11,
-5450000,3.8247e-11,
-5350000,3.6579e-11,
-5250000,3.607e-11,
-5150000,3.7318e-11,
-5050000,3.8731e-11,
-4950000,3.8745e-11,
-4850000,3.9855e-11,
-4750000,4.0298e-11,
-4650000,4.1344e-11,
-4550000,4.2331e-11,
-4450000,4.3039e-11,
-4350000,4.3502e-11,
-4250000,4.3907e-11,
-4150000,4.414e-11,
-4050000,4.6025e-11,
-3950000,4.8e-11,
-3850000,5.0626e-11,
-3750000,5.3669e-11,
-3650000,5.8377e-11,
-3550000,6.1331e-11,
-3450000,6.3078e-11,
-3350000,6.368e-11,
-3250000,6.3725e-11,
-3150000,6.2663e-11,
-3050000,6.1641e-11,
-2950000,6.2185e-11,
-2850000,6.7357e-11,
-2750000,7.4984e-11,
-2650000,8.2874e-11,
-2550000,8.4199e-11,
-2450000,8.1589e-11,
-2350000,7.5151e-11,
-2250000,6.8762e-11,
-2150000,6.5716e-11,
-2050000,6.5972e-11,
-1950000,7.1059e-11,
-1850000,7.6739e-11,
-1750000,8.1548e-11,
-1650000,8.2118e-11,
-1550000,7.9907e-11,
-1450000,8.3216e-11,
-1350000,9.1411e-11,
-1250000,1.1141e-10,
-1150000,1.4093e-10,
-1050000,1.9001e-10,
-950000,2.0282e-10,
-850000,1.8273e-10,
-750000,1.3858e-10,
-650000,1.0472e-10,
-550000,8.4569e-11,
-450000,7.5208e-11,
-350000,7.0842e-11,
-250000,7.1626e-11,
-150000,7.0927e-11,
-50000,7.2738e-11,
50000,7.0671e-11,
150000,6.9338e-11,
