General parameters:
Start time: 2023              8             22              3             16      25.029032
Finish time: 2023              8             22              3             22      22.260609
Dwell time (ms): 3000.000000
Source chamber pressure: 2.00e+3
Differential chamber pressure: 7.98e-07
Sample chamber pressure: 3.79e-08
Example position (nm): -2996042.733206,253812.027854,-1000000.000000
Rotation angle (udeg): 122500055.000000
==========
Instrument status: 
0:Data Directory:/icon/data/2023_08_MoS2_5um_hbn_sub/
1:Sample:MoS2
2:Comments:no
3:PinholePlate:#C13
4:z_Zero:4200
5:Operator:djw77/nav31/kw570
==========
zscan inputs: 
z_sep:50000
z_range:200000 -5000000
data_path:/icon/data/2023_08_MoS2_5um_hbn_sub/
example_pos:-2996042.7332      253812.02785          -1000000
N_dwell:200
sampling_period:15
make_plots:0
m1:0.98976
m2:-0.0073571
==========
Detector params:
Sampling period (ms): 15.000000
N dwell: 200.000000
Filament current (A): 1.540000
Filament emission (mA): 1.755828
Solenoid current (A): NaN
Solenoid shim current (A): NaN
Lens params:
0  685
1  300
2  125
3      -0.002
4       -0.01
5       0.012
6         0.8
7         2.1
8         2.8
9  3000
10  1450
11         0.85
12   0
==========
Data:
z(nm),I(A)
200000,4.329e-11,
100000,4.2545e-11,
0,4.3383e-11,
-100000,4.2687e-11,
-200000,4.3339e-11,
-300000,4.4243e-11,
-400000,4.4089e-11,
-500000,4.408e-11,
-600000,4.364e-11,
-700000,4.3911e-11,
-800000,4.5057e-11,
-900000,4.5362e-11,
-1000000,4.4883e-11,
-1100000,4.5656e-11,
-1200000,4.5811e-11,
-1300000,4.5863e-11,
-1400000,4.6182e-11,
-1500000,4.6274e-11,
-1600000,4.606e-11,
-1700000,4.5042e-11,
-1800000,4.5018e-11,
-1900000,4.62e-11,
-2000000,4.6406e-11,
-2100000,4.5187e-11,
-2200000,4.4508e-11,
-2300000,4.4573e-11,
-2400000,4.4525e-11,
-2500000,4.2354e-11,
-2600000,4.3297e-11,
-2700000,4.2784e-11,
-2800000,4.1468e-11,
-2900000,4.1333e-11,
-3000000,4.0686e-11,
-3100000,3.9664e-11,
-3200000,3.8923e-11,
-3300000,3.9128e-11,
-3400000,3.7905e-11,
-3500000,3.6455e-11,
-3600000,3.686e-11,
-3700000,3.6574e-11,
-3800000,3.5827e-11,
-3900000,3.4868e-11,
-4000000,3.4516e-11,
-4100000,3.3051e-11,
-4200000,3.3833e-11,
-4300000,3.2182e-11,
-4400000,3.1336e-11,
-4500000,3.1003e-11,
-4600000,3.1203e-11,
-4700000,3.1244e-11,
-4800000,2.9235e-11,
-4900000,2.8986e-11,
-5000000,2.8906e-11,
-4950000,2.8444e-11,
-4850000,2.9502e-11,
-4750000,3.046e-11,
-4650000,2.9921e-11,
-4550000,3.111e-11,
-4450000,3.134e-11,
-4350000,3.1834e-11,
-4250000,3.2688e-11,
-4150000,3.3576e-11,
-4050000,3.4609e-11,
-3950000,3.4727e-11,
-3850000,3.5134e-11,
-3750000,3.6567e-11,
-3650000,3.6994e-11,
-3550000,3.6713e-11,
-3450000,3.8381e-11,
-3350000,3.8918e-11,
-3250000,3.8895e-11,
-3150000,3.9577e-11,
-3050000,4.0121e-11,
-2950000,4.1858e-11,
-2850000,4.1687e-11,
-2750000,4.237e-11,
-2650000,4.3148e-11,
-2550000,4.2921e-11,
-2450000,4.3194e-11,
-2350000,4.4254e-11,
-2250000,4.3017e-11,
-2150000,4.5927e-11,
-2050000,4.4982e-11,
-1950000,4.4433e-11,
-1850000,4.5681e-11,
-1750000,4.4525e-11,
-1650000,4.6036e-11,
-1550000,4.5157e-11,
-1450000,4.4774e-11,
-1350000,4.5429e-11,
-1250000,4.5059e-11,
-1150000,4.5905e-11,
-1050000,4.4773e-11,
-950000,4.5135e-11,
-850000,4.4815e-11,
-750000,4.4898e-11,
-650000,4.3849e-11,
-550000,4.4059e-11,
-450000,4.2984e-11,
-350000,4.4022e-11,
-250000,4.3652e-11,
-150000,4.3452e-11,
-50000,4.385e-11,
50000,4.3347e-11,
150000,4.2616e-11,
