General parameters:
Start time: 2023              8             23             14             17      44.346311
Finish time: 2023              8             23             14             23      39.921585
Dwell time (ms): 3000.000000
Source chamber pressure: 2.00e+3
Differential chamber pressure: 7.73e-07
Sample chamber pressure: 3.84e-08
Example position (nm): -2779084.449822,116273.178845,-1000000.000000
Rotation angle (udeg): 140000020.000000
==========
Instrument status: 
0:Data Directory:/icon/data/2023_08_MoS2_5um_hbn_sub/
1:Sample:MoS2
2:Comments:no
3:PinholePlate:#C13
4:z_Zero:4200
5:Operator:djw77/nav31/kw570
==========
zscan inputs: 
z_sep:50000
z_range:200000 -5000000
data_path:/icon/data/2023_08_MoS2_5um_hbn_sub/
example_pos:-2779084.4498      116273.17884          -1000000
N_dwell:200
sampling_period:15
make_plots:1
m1:0.98976
m2:-0.0073571
==========
Detector params:
Sampling period (ms): 15.000000
N dwell: 200.000000
Filament current (A): 1.540000
Filament emission (mA): 1.760958
Solenoid current (A): NaN
Solenoid shim current (A): NaN
Lens params:
0  685
1  300
2  125
3      -0.002
4       -0.01
5       0.012
6         0.8
7         2.1
8         2.8
9  3000
10  1450
11         0.85
12   0
==========
Data:
z(nm),I(A)
200000,4.0497e-11,
100000,4.111e-11,
0,4.0974e-11,
-100000,4.1234e-11,
-200000,4.0548e-11,
-300000,4.1146e-11,
-400000,4.203e-11,
-500000,4.1819e-11,
-600000,4.2497e-11,
-700000,4.1806e-11,
-800000,4.2575e-11,
-900000,4.3163e-11,
-1000000,4.2805e-11,
-1100000,4.3308e-11,
-1200000,4.2726e-11,
-1300000,4.2493e-11,
-1400000,4.2892e-11,
-1500000,4.2601e-11,
-1600000,4.3511e-11,
-1700000,4.2455e-11,
-1800000,4.3019e-11,
-1900000,4.4322e-11,
-2000000,4.2288e-11,
-2100000,4.2736e-11,
-2200000,4.1456e-11,
-2300000,4.2564e-11,
-2400000,4.1544e-11,
-2500000,4.0138e-11,
-2600000,4.1129e-11,
-2700000,3.9065e-11,
-2800000,4.0184e-11,
-2900000,3.8414e-11,
-3000000,3.8633e-11,
-3100000,3.8192e-11,
-3200000,3.679e-11,
-3300000,3.6496e-11,
-3400000,3.5085e-11,
-3500000,3.502e-11,
-3600000,3.4971e-11,
-3700000,3.4535e-11,
-3800000,3.34e-11,
-3900000,3.296e-11,
-4000000,3.2244e-11,
-4100000,3.124e-11,
-4200000,3.1895e-11,
-4300000,3.0678e-11,
-4400000,2.9626e-11,
-4500000,2.9983e-11,
-4600000,2.9007e-11,
-4700000,2.8579e-11,
-4800000,2.7634e-11,
-4900000,2.7031e-11,
-5000000,2.6674e-11,
-4950000,2.7409e-11,
-4850000,2.7729e-11,
-4750000,2.8205e-11,
-4650000,2.8277e-11,
-4550000,2.841e-11,
-4450000,2.9798e-11,
-4350000,3.0013e-11,
-4250000,3.0688e-11,
-4150000,3.1449e-11,
-4050000,3.2178e-11,
-3950000,3.2377e-11,
-3850000,3.3387e-11,
-3750000,3.3459e-11,
-3650000,3.4685e-11,
-3550000,3.5229e-11,
-3450000,3.6093e-11,
-3350000,3.6002e-11,
-3250000,3.7576e-11,
-3150000,3.7228e-11,
-3050000,3.86e-11,
-2950000,3.8178e-11,
-2850000,3.9211e-11,
-2750000,3.9351e-11,
-2650000,4.0157e-11,
-2550000,4.1085e-11,
-2450000,4.1748e-11,
-2350000,4.0434e-11,
-2250000,4.257e-11,
-2150000,4.233e-11,
-2050000,4.2716e-11,
-1950000,4.2989e-11,
-1850000,4.3332e-11,
-1750000,4.2734e-11,
-1650000,4.2757e-11,
-1550000,4.3894e-11,
-1450000,4.397e-11,
-1350000,4.2881e-11,
-1250000,4.3662e-11,
-1150000,4.2672e-11,
-1050000,4.3024e-11,
-950000,4.2817e-11,
-850000,4.3076e-11,
-750000,4.2121e-11,
-650000,4.2245e-11,
-550000,4.2494e-11,
-450000,4.2254e-11,
-350000,4.0982e-11,
-250000,4.0814e-11,
-150000,4.2117e-11,
-50000,4.0784e-11,
50000,4.0744e-11,
150000,4.1088e-11,
