General parameters:
Start time: 2023              8             18             15             53      47.595489
Finish time: 2023              8             18             15             59      46.511644
Dwell time (ms): 3000.000000
Source chamber pressure: 2.00e+3
Differential chamber pressure: 7.90e-07
Sample chamber pressure: 3.94e-08
Example position (nm): -3875820.351449,90643.440543,-1000000.000000
Rotation angle (udeg): 59999805.000000
==========
Instrument status: 
0:Data Directory:/icon/data/2023_08_MoS2_5um_hbn_sub/
1:Sample:MoS2
2:Comments:no
3:PinholePlate:#C13
4:z_Zero:4200
5:Operator:djw77/nav31/kw570
==========
zscan inputs: 
z_sep:50000
z_range:200000 -5000000
data_path:/icon/data/2023_08_MoS2_5um_hbn_sub/
example_pos:-3875820.3514      90643.440543          -1000000
N_dwell:200
sampling_period:15
make_plots:1
m1:0.98976
m2:-0.0073571
==========
Detector params:
Sampling period (ms): 15.000000
N dwell: 200.000000
Filament current (A): 1.540000
Filament emission (mA): 1.654938
Solenoid current (A): NaN
Solenoid shim current (A): NaN
Lens params:
0  685
1  300
2  125
3      -0.002
4       -0.01
5       0.012
6         0.8
7         2.1
8         2.8
9  3000
10  1450
11         0.85
12   0
==========
Data:
z(nm),I(A)
200000,4.65e-11,
100000,4.5025e-11,
0,4.3574e-11,
-100000,4.2042e-11,
-200000,4.3371e-11,
-300000,4.521e-11,
-400000,4.4269e-11,
-500000,4.6861e-11,
-600000,4.7505e-11,
-700000,4.8895e-11,
-800000,4.7301e-11,
-900000,4.6547e-11,
-1000000,5.1487e-11,
-1100000,5.5737e-11,
-1200000,5.8118e-11,
-1300000,5.8655e-11,
-1400000,5.4002e-11,
-1500000,5.3294e-11,
-1600000,5.2871e-11,
-1700000,5.2721e-11,
-1800000,5.3646e-11,
-1900000,5.2887e-11,
-2000000,4.9218e-11,
-2100000,4.846e-11,
-2200000,4.8444e-11,
-2300000,4.6715e-11,
-2400000,4.9054e-11,
-2500000,4.657e-11,
-2600000,4.4917e-11,
-2700000,4.4731e-11,
-2800000,4.4936e-11,
-2900000,4.4893e-11,
-3000000,4.2816e-11,
-3100000,4.3031e-11,
-3200000,4.0163e-11,
-3300000,3.7962e-11,
-3400000,3.8015e-11,
-3500000,3.6787e-11,
-3600000,3.5788e-11,
-3700000,3.4649e-11,
-3800000,3.3599e-11,
-3900000,3.2516e-11,
-4000000,3.0575e-11,
-4100000,3.0844e-11,
-4200000,3.018e-11,
-4300000,2.8722e-11,
-4400000,2.8613e-11,
-4500000,2.7132e-11,
-4600000,2.6976e-11,
-4700000,2.6173e-11,
-4800000,2.5346e-11,
-4900000,2.4978e-11,
-5000000,2.4022e-11,
-4950000,2.4675e-11,
-4850000,2.5535e-11,
-4750000,2.5354e-11,
-4650000,2.6416e-11,
-4550000,2.6887e-11,
-4450000,2.7951e-11,
-4350000,2.8377e-11,
-4250000,2.9092e-11,
-4150000,3.0408e-11,
-4050000,3.0605e-11,
-3950000,3.1606e-11,
-3850000,3.2516e-11,
-3750000,3.4271e-11,
-3650000,3.5453e-11,
-3550000,3.6455e-11,
-3450000,3.7317e-11,
-3350000,3.8575e-11,
-3250000,3.9781e-11,
-3150000,4.1605e-11,
-3050000,4.5317e-11,
-2950000,4.5755e-11,
-2850000,4.6425e-11,
-2750000,4.6732e-11,
-2650000,4.715e-11,
-2550000,4.6152e-11,
-2450000,4.7731e-11,
-2350000,4.6451e-11,
-2250000,4.7705e-11,
-2150000,4.7791e-11,
-2050000,5.0591e-11,
-1950000,5.153e-11,
-1850000,5.3229e-11,
-1750000,5.3015e-11,
-1650000,5.3528e-11,
-1550000,5.3033e-11,
-1450000,5.2596e-11,
-1350000,5.4658e-11,
-1250000,5.6808e-11,
-1150000,5.3405e-11,
-1050000,5.2205e-11,
-950000,4.7826e-11,
-850000,4.7098e-11,
-750000,4.6965e-11,
-650000,4.9077e-11,
-550000,4.5219e-11,
-450000,4.5084e-11,
-350000,4.4458e-11,
-250000,4.4914e-11,
-150000,4.2823e-11,
-50000,4.2492e-11,
50000,4.4077e-11,
150000,4.5037e-11,
