General parameters:
Start time: 2023              8             21             23             10       4.546219
Finish time: 2023              8             21             23             16       4.146053
Dwell time (ms): 3000.000000
Source chamber pressure: 2.00e+3
Differential chamber pressure: 7.98e-07
Sample chamber pressure: 3.79e-08
Example position (nm): -3065198.441583,280714.103144,-1000000.000000
Rotation angle (udeg): 117500090.000000
==========
Instrument status: 
0:Data Directory:/icon/data/2023_08_MoS2_5um_hbn_sub/
1:Sample:MoS2
2:Comments:no
3:PinholePlate:#C13
4:z_Zero:4200
5:Operator:djw77/nav31/kw570
==========
zscan inputs: 
z_sep:50000
z_range:200000 -5000000
data_path:/icon/data/2023_08_MoS2_5um_hbn_sub/
example_pos:-3065198.4416      280714.10314          -1000000
N_dwell:200
sampling_period:15
make_plots:0
m1:0.98976
m2:-0.0073571
==========
Detector params:
Sampling period (ms): 15.000000
N dwell: 200.000000
Filament current (A): 1.540000
Filament emission (mA): 1.744200
Solenoid current (A): NaN
Solenoid shim current (A): NaN
Lens params:
0  685
1  300
2  125
3      -0.002
4       -0.01
5       0.012
6         0.8
7         2.1
8         2.8
9  3000
10  1450
11         0.85
12   0
==========
Data:
z(nm),I(A)
200000,4.4476e-11,
100000,4.4588e-11,
0,4.4493e-11,
-100000,4.6361e-11,
-200000,4.5177e-11,
-300000,4.4915e-11,
-400000,4.5594e-11,
-500000,4.6006e-11,
-600000,4.611e-11,
-700000,4.6322e-11,
-800000,4.7262e-11,
-900000,4.6523e-11,
-1000000,4.6534e-11,
-1100000,4.6676e-11,
-1200000,4.7387e-11,
-1300000,4.7675e-11,
-1400000,4.7153e-11,
-1500000,4.6752e-11,
-1600000,4.8229e-11,
-1700000,4.7555e-11,
-1800000,4.7978e-11,
-1900000,4.7996e-11,
-2000000,4.7012e-11,
-2100000,4.6448e-11,
-2200000,4.6887e-11,
-2300000,4.6952e-11,
-2400000,4.5252e-11,
-2500000,4.515e-11,
-2600000,4.4756e-11,
-2700000,4.5217e-11,
-2800000,4.2994e-11,
-2900000,4.3756e-11,
-3000000,4.2925e-11,
-3100000,4.1835e-11,
-3200000,4.1581e-11,
-3300000,4.0296e-11,
-3400000,3.9971e-11,
-3500000,3.9375e-11,
-3600000,3.8957e-11,
-3700000,3.7716e-11,
-3800000,3.6578e-11,
-3900000,3.6467e-11,
-4000000,3.5461e-11,
-4100000,3.4748e-11,
-4200000,3.4905e-11,
-4300000,3.3491e-11,
-4400000,3.4126e-11,
-4500000,3.2954e-11,
-4600000,3.2342e-11,
-4700000,3.2674e-11,
-4800000,2.9898e-11,
-4900000,3.0054e-11,
-5000000,2.9568e-11,
-4950000,3.0107e-11,
-4850000,3.0983e-11,
-4750000,3.1391e-11,
-4650000,3.1211e-11,
-4550000,3.1033e-11,
-4450000,3.331e-11,
-4350000,3.3207e-11,
-4250000,3.4502e-11,
-4150000,3.4566e-11,
-4050000,3.5724e-11,
-3950000,3.5046e-11,
-3850000,3.6483e-11,
-3750000,3.7527e-11,
-3650000,3.7862e-11,
-3550000,3.9081e-11,
-3450000,3.9513e-11,
-3350000,4.1245e-11,
-3250000,4.0448e-11,
-3150000,4.0595e-11,
-3050000,4.175e-11,
-2950000,4.293e-11,
-2850000,4.3518e-11,
-2750000,4.4627e-11,
-2650000,4.4112e-11,
-2550000,4.5918e-11,
-2450000,4.546e-11,
-2350000,4.6491e-11,
-2250000,4.6119e-11,
-2150000,4.6939e-11,
-2050000,4.7881e-11,
-1950000,4.7471e-11,
-1850000,4.8383e-11,
-1750000,4.8119e-11,
-1650000,4.7235e-11,
-1550000,4.7002e-11,
-1450000,4.8431e-11,
-1350000,4.776e-11,
-1250000,4.8616e-11,
-1150000,4.7816e-11,
-1050000,4.7223e-11,
-950000,4.5867e-11,
-850000,4.7265e-11,
-750000,4.5906e-11,
-650000,4.611e-11,
-550000,4.5624e-11,
-450000,4.5615e-11,
-350000,4.4581e-11,
-250000,4.5493e-11,
-150000,4.4019e-11,
-50000,4.4647e-11,
50000,4.4884e-11,
150000,4.5339e-11,
