General parameters:
Start time: 2023              8             28              5             52      18.075633
Finish time: 2023              8             28              5             58      16.135249
Dwell time (ms): 3000.000000
Source chamber pressure: 2.00e+3
Differential chamber pressure: 6.31e-07
Sample chamber pressure: 3.62e-08
Example position (nm): -2626311.200816,49111.103958,-1000000.000000
Rotation angle (udeg): 145000165.000000
==========
Instrument status: 
0:Data Directory:/icon/data/2023_08_MoS2_5um_hbn_sub/
1:Sample:MoS2
2:Comments:no
3:PinholePlate:#C13
4:z_Zero:4200
5:Operator:djw77/nav31/kw570
==========
zscan inputs: 
z_sep:50000
z_range:200000 -5000000
data_path:/icon/data/2023_08_MoS2_5um_hbn_sub/
example_pos:-2626311.2008      49111.103958          -1000000
N_dwell:200
sampling_period:15
make_plots:1
m1:0.98976
m2:-0.0073571
==========
Detector params:
Sampling period (ms): 15.000000
N dwell: 200.000000
Filament current (A): 1.540000
Filament emission (mA): 1.903572
Solenoid current (A): NaN
Solenoid shim current (A): NaN
Lens params:
0  685
1  300
2  125
3      -0.002
4       -0.01
5       0.012
6         0.8
7         2.1
8         2.8
9  3000
10  1450
11         0.85
12   0
==========
Data:
z(nm),I(A)
200000,7.2879e-11,
100000,6.9437e-11,
0,6.5848e-11,
-100000,6.245e-11,
-200000,6.1162e-11,
-300000,6.1418e-11,
-400000,6.4167e-11,
-500000,6.9122e-11,
-600000,7.9936e-11,
-700000,9.7526e-11,
-800000,1.1374e-10,
-900000,1.0425e-10,
-1000000,8.6621e-11,
-1100000,7.3432e-11,
-1200000,6.5001e-11,
-1300000,5.9815e-11,
-1400000,5.745e-11,
-1500000,5.5362e-11,
-1600000,5.5293e-11,
-1700000,5.4297e-11,
-1800000,5.4218e-11,
-1900000,5.5808e-11,
-2000000,5.7722e-11,
-2100000,6.3181e-11,
-2200000,6.9995e-11,
-2300000,7.47e-11,
-2400000,7.3553e-11,
-2500000,6.9127e-11,
-2600000,6.0585e-11,
-2700000,5.4347e-11,
-2800000,5.3561e-11,
-2900000,5.5279e-11,
-3000000,5.8907e-11,
-3100000,6.429e-11,
-3200000,6.9515e-11,
-3300000,7.0419e-11,
-3400000,6.7904e-11,
-3500000,6.4827e-11,
-3600000,5.3869e-11,
-3700000,4.7497e-11,
-3800000,4.2282e-11,
-3900000,3.8327e-11,
-4000000,3.5608e-11,
-4100000,3.5346e-11,
-4200000,3.4063e-11,
-4300000,3.3415e-11,
-4400000,3.2951e-11,
-4500000,3.2796e-11,
-4600000,3.2071e-11,
-4700000,3.0787e-11,
-4800000,2.9808e-11,
-4900000,2.8906e-11,
-5000000,2.8906e-11,
-4950000,2.9846e-11,
-4850000,3.005e-11,
-4750000,3.0726e-11,
-4650000,3.2173e-11,
-4550000,3.2412e-11,
-4450000,3.2325e-11,
-4350000,3.3153e-11,
-4250000,3.409e-11,
-4150000,3.4969e-11,
-4050000,3.5964e-11,
-3950000,3.7156e-11,
-3850000,3.9217e-11,
-3750000,4.4378e-11,
-3650000,5.013e-11,
-3550000,5.7723e-11,
-3450000,6.4802e-11,
-3350000,6.8839e-11,
-3250000,6.9938e-11,
-3150000,6.6648e-11,
-3050000,6.056e-11,
-2950000,5.5415e-11,
-2850000,5.4888e-11,
-2750000,5.2224e-11,
-2650000,5.5411e-11,
-2550000,6.2937e-11,
-2450000,6.9975e-11,
-2350000,7.4268e-11,
-2250000,7.5417e-11,
-2150000,6.6363e-11,
-2050000,6.0024e-11,
-1950000,5.5577e-11,
-1850000,5.3861e-11,
-1750000,5.5022e-11,
-1650000,5.41e-11,
-1550000,5.4492e-11,
-1450000,5.6073e-11,
-1350000,5.6798e-11,
-1250000,6.1319e-11,
-1150000,6.6276e-11,
-1050000,7.7321e-11,
-950000,9.2222e-11,
-850000,1.1175e-10,
-750000,1.1279e-10,
-650000,9.0567e-11,
-550000,7.4565e-11,
-450000,6.5979e-11,
-350000,6.2581e-11,
-250000,6.13e-11,
-150000,6.2377e-11,
-50000,6.4271e-11,
50000,6.7299e-11,
150000,6.9403e-11,
