General parameters:
Start time: 2023              8             19             16             27      58.617381
Finish time: 2023              8             19             16             33      56.704128
Dwell time (ms): 3000.000000
Source chamber pressure: 2.00e+3
Differential chamber pressure: 7.97e-07
Sample chamber pressure: 3.79e-08
Example position (nm): -3151611.340421,282800.534825,-1000000.000000
Rotation angle (udeg): 110000040.000000
==========
Instrument status: 
0:Data Directory:/icon/data/2023_08_MoS2_5um_hbn_sub/
1:Sample:MoS2
2:Comments:no
3:PinholePlate:#C13
4:z_Zero:4200
5:Operator:djw77/nav31/kw570
==========
zscan inputs: 
z_sep:50000
z_range:200000 -5000000
data_path:/icon/data/2023_08_MoS2_5um_hbn_sub/
example_pos:-3151611.3404      282800.53483          -1000000
N_dwell:200
sampling_period:15
make_plots:0
m1:0.98976
m2:-0.0073571
==========
Detector params:
Sampling period (ms): 15.000000
N dwell: 200.000000
Filament current (A): 1.540000
Filament emission (mA): 1.690506
Solenoid current (A): NaN
Solenoid shim current (A): NaN
Lens params:
0  685
1  300
2  125
3      -0.002
4       -0.01
5       0.012
6         0.8
7         2.1
8         2.8
9  3000
10  1450
11         0.85
12   0
==========
Data:
z(nm),I(A)
200000,4.4219e-11,
100000,4.4878e-11,
0,4.4323e-11,
-100000,4.4926e-11,
-200000,4.6057e-11,
-300000,4.6783e-11,
-400000,4.7865e-11,
-500000,5.027e-11,
-600000,5.411e-11,
-700000,5.6978e-11,
-800000,5.5644e-11,
-900000,5.1693e-11,
-1000000,5.9439e-11,
-1100000,5.8706e-11,
-1200000,5.6758e-11,
-1300000,5.4393e-11,
-1400000,5.0156e-11,
-1500000,5.228e-11,
-1600000,5.9287e-11,
-1700000,6.1849e-11,
-1800000,6.5772e-11,
-1900000,6.0169e-11,
-2000000,5.0895e-11,
-2100000,4.8136e-11,
-2200000,4.4601e-11,
-2300000,4.5134e-11,
-2400000,4.5682e-11,
-2500000,4.4146e-11,
-2600000,4.333e-11,
-2700000,4.3161e-11,
-2800000,4.2418e-11,
-2900000,4.3077e-11,
-3000000,4.1621e-11,
-3100000,4.086e-11,
-3200000,4.0434e-11,
-3300000,3.9205e-11,
-3400000,3.9323e-11,
-3500000,4.0364e-11,
-3600000,3.8454e-11,
-3700000,3.7946e-11,
-3800000,3.7161e-11,
-3900000,3.5761e-11,
-4000000,3.5017e-11,
-4100000,3.3375e-11,
-4200000,3.286e-11,
-4300000,3.2519e-11,
-4400000,3.2492e-11,
-4500000,3.1497e-11,
-4600000,3.1472e-11,
-4700000,3.0553e-11,
-4800000,2.9645e-11,
-4900000,3.0032e-11,
-5000000,2.8588e-11,
-4950000,2.8328e-11,
-4850000,3.0057e-11,
-4750000,3.0125e-11,
-4650000,3.1211e-11,
-4550000,3.1036e-11,
-4450000,3.2139e-11,
-4350000,3.2664e-11,
-4250000,3.3238e-11,
-4150000,3.3862e-11,
-4050000,3.4836e-11,
-3950000,3.4599e-11,
-3850000,3.6147e-11,
-3750000,3.7253e-11,
-3650000,3.986e-11,
-3550000,3.8737e-11,
-3450000,4.0758e-11,
-3350000,3.9094e-11,
-3250000,4.0581e-11,
-3150000,4.0714e-11,
-3050000,4.2493e-11,
-2950000,4.2065e-11,
-2850000,4.2113e-11,
-2750000,4.3847e-11,
-2650000,4.3858e-11,
-2550000,4.4616e-11,
-2450000,4.4471e-11,
-2350000,4.4886e-11,
-2250000,4.4701e-11,
-2150000,4.5103e-11,
-2050000,4.7785e-11,
-1950000,5.4547e-11,
-1850000,6.2304e-11,
-1750000,6.3616e-11,
-1650000,6.2142e-11,
-1550000,5.5208e-11,
-1450000,4.9326e-11,
-1350000,4.9826e-11,
-1250000,5.3508e-11,
-1150000,5.5989e-11,
-1050000,5.6949e-11,
-950000,5.2427e-11,
-850000,5.2818e-11,
-750000,5.6373e-11,
-650000,5.8114e-11,
-550000,5.2818e-11,
-450000,4.9112e-11,
-350000,4.7131e-11,
-250000,4.6069e-11,
-150000,4.5363e-11,
-50000,4.5399e-11,
50000,4.5297e-11,
150000,4.4774e-11,
