General parameters:
Start time: 2023              8             29              5             14      10.822256
Finish time: 2023              8             29              5             21      13.322576
Dwell time (ms): 3000.000000
Source chamber pressure: 2.00e+3
Differential chamber pressure: 6.03e-07
Sample chamber pressure: 3.58e-08
Example position (nm): -3115294.465691,310439.967059,-1000000.000000
Rotation angle (udeg): 112500025.000000
==========
Instrument status: 
0:Data Directory:/icon/data/2023_08_MoS2_5um_hbn_sub/
1:Sample:MoS2
2:Comments:no
3:PinholePlate:#C13
4:z_Zero:4200
5:Operator:djw77/nav31/kw570
==========
zscan inputs: 
z_sep:50000
z_range:200000 -6000000
data_path:/icon/data/2023_08_MoS2_5um_hbn_sub/
example_pos:-3115294.4657      310439.96706          -1000000
N_dwell:200
sampling_period:15
make_plots:1
m1:0.98976
m2:-0.0073571
==========
Detector params:
Sampling period (ms): 15.000000
N dwell: 200.000000
Filament current (A): 1.540000
Filament emission (mA): 1.926144
Solenoid current (A): NaN
Solenoid shim current (A): NaN
Lens params:
0  685
1  300
2  125
3      -0.002
4       -0.01
5       0.012
6         0.8
7         2.1
8         2.8
9  3000
10  1450
11         0.85
12   0
==========
Data:
z(nm),I(A)
200000,6.23e-11,
100000,6.2666e-11,
0,6.2779e-11,
-100000,6.2188e-11,
-200000,6.4695e-11,
-300000,6.3545e-11,
-400000,6.4319e-11,
-500000,6.6044e-11,
-600000,6.5327e-11,
-700000,6.4604e-11,
-800000,6.4962e-11,
-900000,6.6223e-11,
-1000000,6.5795e-11,
-1100000,6.6217e-11,
-1200000,6.7667e-11,
-1300000,6.6672e-11,
-1400000,6.6719e-11,
-1500000,6.6642e-11,
-1600000,6.7325e-11,
-1700000,6.7085e-11,
-1800000,6.7371e-11,
-1900000,6.6899e-11,
-2000000,6.6246e-11,
-2100000,6.618e-11,
-2200000,6.3734e-11,
-2300000,6.4585e-11,
-2400000,6.3989e-11,
-2500000,6.4989e-11,
-2600000,6.3357e-11,
-2700000,6.2141e-11,
-2800000,6.0351e-11,
-2900000,6.1547e-11,
-3000000,6.0151e-11,
-3100000,6.034e-11,
-3200000,5.807e-11,
-3300000,5.8176e-11,
-3400000,5.6536e-11,
-3500000,5.4845e-11,
-3600000,5.3539e-11,
-3700000,5.3788e-11,
-3800000,5.243e-11,
-3900000,5.2633e-11,
-4000000,5.0244e-11,
-4100000,5.0793e-11,
-4200000,4.9407e-11,
-4300000,4.7728e-11,
-4400000,4.6856e-11,
-4500000,4.6939e-11,
-4600000,4.4983e-11,
-4700000,4.5626e-11,
-4800000,4.4692e-11,
-4900000,4.2704e-11,
-5000000,4.2654e-11,
-5100000,4.0926e-11,
-5200000,4.1247e-11,
-5300000,4.0671e-11,
-5400000,3.9911e-11,
-5500000,3.9285e-11,
-5600000,3.8476e-11,
-5700000,3.817e-11,
-5800000,3.7581e-11,
-5900000,3.7636e-11,
-6000000,3.6667e-11,
-5950000,3.7775e-11,
-5850000,3.7746e-11,
-5750000,3.7543e-11,
-5650000,3.8244e-11,
-5550000,3.8331e-11,
-5450000,3.9175e-11,
-5350000,4.0319e-11,
-5250000,4.0628e-11,
-5150000,4.234e-11,
-5050000,4.2742e-11,
-4950000,4.3468e-11,
-4850000,4.376e-11,
-4750000,4.3673e-11,
-4650000,4.5798e-11,
-4550000,4.6173e-11,
-4450000,4.7577e-11,
-4350000,4.8276e-11,
-4250000,4.8267e-11,
-4150000,4.8813e-11,
-4050000,4.9978e-11,
-3950000,5.12e-11,
-3850000,5.2446e-11,
-3750000,5.3923e-11,
-3650000,5.5158e-11,
-3550000,5.5196e-11,
-3450000,5.5911e-11,
-3350000,5.6752e-11,
-3250000,5.7841e-11,
-3150000,5.8081e-11,
-3050000,5.923e-11,
-2950000,6.0169e-11,
-2850000,6.0647e-11,
-2750000,6.0896e-11,
-2650000,6.2089e-11,
-2550000,6.3546e-11,
-2450000,6.3198e-11,
-2350000,6.467e-11,
-2250000,6.492e-11,
-2150000,6.6097e-11,
-2050000,6.6027e-11,
-1950000,6.7085e-11,
-1850000,6.8204e-11,
-1750000,6.8237e-11,
-1650000,6.6961e-11,
-1550000,6.8545e-11,
-1450000,6.6753e-11,
-1350000,6.7573e-11,
-1250000,6.8033e-11,
-1150000,6.7033e-11,
-1050000,6.709e-11,
-950000,6.756e-11,
-850000,6.6085e-11,
-750000,6.5961e-11,
-650000,6.5242e-11,
-550000,6.7042e-11,
-450000,6.6211e-11,
-350000,6.4803e-11,
-250000,6.5414e-11,
-150000,6.5269e-11,
-50000,6.421e-11,
50000,6.4304e-11,
150000,6.3403e-11,
