General parameters:
Start time: 2023              8             21             22             15      39.898825
Finish time: 2023              8             21             22             21      34.630304
Dwell time (ms): 3000.000000
Source chamber pressure: 2.00e+3
Differential chamber pressure: 7.98e-07
Sample chamber pressure: 3.79e-08
Example position (nm): -3394236.141535,324070.120223,-1000000.000000
Rotation angle (udeg): 95000000.000000
==========
Instrument status: 
0:Data Directory:/icon/data/2023_08_MoS2_5um_hbn_sub/
1:Sample:MoS2
2:Comments:no
3:PinholePlate:#C13
4:z_Zero:4200
5:Operator:djw77/nav31/kw570
==========
zscan inputs: 
z_sep:50000
z_range:200000 -5000000
data_path:/icon/data/2023_08_MoS2_5um_hbn_sub/
example_pos:-3394236.1415      324070.12022          -1000000
N_dwell:200
sampling_period:15
make_plots:0
m1:0.98976
m2:-0.0073571
==========
Detector params:
Sampling period (ms): 15.000000
N dwell: 200.000000
Filament current (A): 1.540000
Filament emission (mA): 1.738386
Solenoid current (A): NaN
Solenoid shim current (A): NaN
Lens params:
0  685
1  300
2  125
3      -0.002
4       -0.01
5       0.012
6         0.8
7         2.1
8         2.8
9  3000
10  1450
11         0.85
12   0
==========
Data:
z(nm),I(A)
200000,5.4256e-11,
100000,5.6179e-11,
0,5.7864e-11,
-100000,5.7157e-11,
-200000,5.4755e-11,
-300000,5.3552e-11,
-400000,5.3086e-11,
-500000,5.6524e-11,
-600000,6.3087e-11,
-700000,7.9989e-11,
-800000,1.1693e-10,
-900000,1.6024e-10,
-1000000,1.6285e-10,
-1100000,1.36e-10,
-1200000,9.6677e-11,
-1300000,7.336e-11,
-1400000,6.3149e-11,
-1500000,5.8238e-11,
-1600000,5.5452e-11,
-1700000,5.2804e-11,
-1800000,5.1813e-11,
-1900000,5.0101e-11,
-2000000,5.0284e-11,
-2100000,5.1414e-11,
-2200000,5.1782e-11,
-2300000,5.9222e-11,
-2400000,6.7146e-11,
-2500000,7.4023e-11,
-2600000,7.4737e-11,
-2700000,6.8078e-11,
-2800000,5.8459e-11,
-2900000,4.9321e-11,
-3000000,4.3662e-11,
-3100000,4.0804e-11,
-3200000,4.0101e-11,
-3300000,3.967e-11,
-3400000,3.901e-11,
-3500000,3.7097e-11,
-3600000,3.7648e-11,
-3700000,3.5545e-11,
-3800000,3.5229e-11,
-3900000,3.4835e-11,
-4000000,3.3578e-11,
-4100000,3.4222e-11,
-4200000,3.3448e-11,
-4300000,3.4538e-11,
-4400000,3.392e-11,
-4500000,3.3232e-11,
-4600000,3.2195e-11,
-4700000,3.1648e-11,
-4800000,3.2456e-11,
-4900000,2.9975e-11,
-5000000,2.907e-11,
-4950000,2.8881e-11,
-4850000,2.9875e-11,
-4750000,3.1059e-11,
-4650000,3.3265e-11,
-4550000,3.4007e-11,
-4450000,3.3008e-11,
-4350000,3.3509e-11,
-4250000,3.2937e-11,
-4150000,3.3565e-11,
-4050000,3.3225e-11,
-3950000,3.4349e-11,
-3850000,3.4324e-11,
-3750000,3.5378e-11,
-3650000,3.7018e-11,
-3550000,3.7257e-11,
-3450000,3.8623e-11,
-3350000,3.9003e-11,
-3250000,3.9672e-11,
-3150000,4.097e-11,
-3050000,4.1978e-11,
-2950000,4.4737e-11,
-2850000,5.2385e-11,
-2750000,6.3115e-11,
-2650000,7.2949e-11,
-2550000,7.708e-11,
-2450000,7.4175e-11,
-2350000,6.5033e-11,
-2250000,5.7069e-11,
-2150000,5.2221e-11,
-2050000,4.9881e-11,
-1950000,4.9636e-11,
-1850000,5.1243e-11,
-1750000,5.1908e-11,
-1650000,5.3767e-11,
-1550000,5.6523e-11,
-1450000,5.9032e-11,
-1350000,6.7465e-11,
-1250000,8.0604e-11,
-1150000,1.086e-10,
-1050000,1.4971e-10,
-950000,1.6679e-10,
-850000,1.5018e-10,
-750000,1.0026e-10,
-650000,7.2214e-11,
-550000,5.8761e-11,
-450000,5.5038e-11,
-350000,5.377e-11,
-250000,5.3695e-11,
-150000,5.526e-11,
-50000,5.6779e-11,
50000,5.6748e-11,
150000,5.569e-11,
