General parameters:
Start time: 2023              8             29              4             59      53.706812
Finish time: 2023              8             29              5              6      57.084808
Dwell time (ms): 3000.000000
Source chamber pressure: 2.00e+3
Differential chamber pressure: 6.04e-07
Sample chamber pressure: 3.61e-08
Example position (nm): -3197787.451076,323360.029597,-1000000.000000
Rotation angle (udeg): 107500075.000000
==========
Instrument status: 
0:Data Directory:/icon/data/2023_08_MoS2_5um_hbn_sub/
1:Sample:MoS2
2:Comments:no
3:PinholePlate:#C13
4:z_Zero:4200
5:Operator:djw77/nav31/kw570
==========
zscan inputs: 
z_sep:50000
z_range:200000 -6000000
data_path:/icon/data/2023_08_MoS2_5um_hbn_sub/
example_pos:-3197787.4511       323360.0296          -1000000
N_dwell:200
sampling_period:15
make_plots:1
m1:0.98976
m2:-0.0073571
==========
Detector params:
Sampling period (ms): 15.000000
N dwell: 200.000000
Filament current (A): 1.540000
Filament emission (mA): 1.926486
Solenoid current (A): NaN
Solenoid shim current (A): NaN
Lens params:
0  685
1  300
2  125
3      -0.002
4       -0.01
5       0.012
6         0.8
7         2.1
8         2.8
9  3000
10  1450
11         0.85
12   0
==========
Data:
z(nm),I(A)
200000,6.5592e-11,
100000,6.6853e-11,
0,7.0343e-11,
-100000,6.8625e-11,
-200000,7.1461e-11,
-300000,7.5779e-11,
-400000,7.8058e-11,
-500000,7.5134e-11,
-600000,7.3487e-11,
-700000,7.0672e-11,
-800000,8.7039e-11,
-900000,1.1026e-10,
-1000000,1.0138e-10,
-1100000,8.9814e-11,
-1200000,8.8114e-11,
-1300000,8.0633e-11,
-1400000,7.5152e-11,
-1500000,7.5479e-11,
-1600000,8.3083e-11,
-1700000,8.0809e-11,
-1800000,8.0251e-11,
-1900000,7.2186e-11,
-2000000,6.8317e-11,
-2100000,6.6768e-11,
-2200000,6.5769e-11,
-2300000,6.5176e-11,
-2400000,6.6228e-11,
-2500000,6.4644e-11,
-2600000,6.3473e-11,
-2700000,6.3199e-11,
-2800000,6.2523e-11,
-2900000,6.186e-11,
-3000000,5.9683e-11,
-3100000,5.9226e-11,
-3200000,5.962e-11,
-3300000,6.1551e-11,
-3400000,6.2198e-11,
-3500000,5.7902e-11,
-3600000,5.6065e-11,
-3700000,5.4166e-11,
-3800000,5.2584e-11,
-3900000,5.2491e-11,
-4000000,5.1844e-11,
-4100000,4.9908e-11,
-4200000,4.9563e-11,
-4300000,4.8399e-11,
-4400000,4.6869e-11,
-4500000,4.7432e-11,
-4600000,4.5705e-11,
-4700000,4.5383e-11,
-4800000,4.4425e-11,
-4900000,4.3568e-11,
-5000000,4.1799e-11,
-5100000,4.2073e-11,
-5200000,4.0777e-11,
-5300000,4.0471e-11,
-5400000,4.0133e-11,
-5500000,3.8939e-11,
-5600000,3.892e-11,
-5700000,3.8756e-11,
-5800000,3.7491e-11,
-5900000,3.694e-11,
-6000000,3.6889e-11,
-5950000,3.6479e-11,
-5850000,3.7086e-11,
-5750000,3.7156e-11,
-5650000,3.8526e-11,
-5550000,3.889e-11,
-5450000,3.8381e-11,
-5350000,3.9909e-11,
-5250000,4.0371e-11,
-5150000,4.1039e-11,
-5050000,4.1446e-11,
-4950000,4.2118e-11,
-4850000,4.2988e-11,
-4750000,4.3918e-11,
-4650000,4.5612e-11,
-4550000,4.5996e-11,
-4450000,4.5882e-11,
-4350000,4.6661e-11,
-4250000,4.8217e-11,
-4150000,4.8533e-11,
-4050000,5.0356e-11,
-3950000,5.1856e-11,
-3850000,5.3529e-11,
-3750000,5.5492e-11,
-3650000,5.8275e-11,
-3550000,5.8591e-11,
-3450000,6.1882e-11,
-3350000,6.4832e-11,
-3250000,6.2515e-11,
-3150000,6.0446e-11,
-3050000,6.022e-11,
-2950000,6.164e-11,
-2850000,6.2038e-11,
-2750000,6.3582e-11,
-2650000,6.5265e-11,
-2550000,6.5821e-11,
-2450000,6.5438e-11,
-2350000,6.521e-11,
-2250000,6.6458e-11,
-2150000,6.72e-11,
-2050000,7.0501e-11,
-1950000,7.6564e-11,
-1850000,8.8035e-11,
-1750000,9.3768e-11,
-1650000,9.2633e-11,
-1550000,8.7036e-11,
-1450000,7.9036e-11,
-1350000,8.1616e-11,
-1250000,9.3738e-11,
-1150000,9.9645e-11,
-1050000,1.096e-10,
-950000,1.1562e-10,
-850000,1.1502e-10,
-750000,8.844e-11,
-650000,8.1483e-11,
-550000,8.2797e-11,
-450000,7.9375e-11,
-350000,8.1552e-11,
-250000,7.7776e-11,
-150000,7.1183e-11,
-50000,6.9341e-11,
50000,7.0752e-11,
150000,6.8774e-11,
