General parameters:
Start time: 2023              8             21             15             18      40.228554
Finish time: 2023              8             21             15             24      35.623141
Dwell time (ms): 3000.000000
Source chamber pressure: 2.00e+3
Differential chamber pressure: 7.98e-07
Sample chamber pressure: 3.84e-08
Example position (nm): -3501938.986142,295660.416770,-1000000.000000
Rotation angle (udeg): 87499830.000000
==========
Instrument status: 
0:Data Directory:/icon/data/2023_08_MoS2_5um_hbn_sub/
1:Sample:MoS2
2:Comments:no
3:PinholePlate:#C13
4:z_Zero:4200
5:Operator:djw77/nav31/kw570
==========
zscan inputs: 
z_sep:50000
z_range:200000 -5000000
data_path:/icon/data/2023_08_MoS2_5um_hbn_sub/
example_pos:-3501938.9861      295660.41677          -1000000
N_dwell:200
sampling_period:15
make_plots:0
m1:0.98976
m2:-0.0073571
==========
Detector params:
Sampling period (ms): 15.000000
N dwell: 200.000000
Filament current (A): 1.540000
Filament emission (mA): 1.741806
Solenoid current (A): NaN
Solenoid shim current (A): NaN
Lens params:
0  685
1  300
2  125
3      -0.002
4       -0.01
5       0.012
6         0.8
7         2.1
8         2.8
9  3000
10  1450
11         0.85
12   0
==========
Data:
z(nm),I(A)
200000,9.6495e-11,
100000,9.4258e-11,
0,9.117e-11,
-100000,8.6832e-11,
-200000,8.0912e-11,
-300000,7.3957e-11,
-400000,7.0547e-11,
-500000,7.2106e-11,
-600000,7.9174e-11,
-700000,9.5711e-11,
-800000,1.1923e-10,
-900000,1.4292e-10,
-1000000,1.6513e-10,
-1100000,1.6054e-10,
-1200000,1.2808e-10,
-1300000,1.0275e-10,
-1400000,8.5522e-11,
-1500000,7.4496e-11,
-1600000,6.7759e-11,
-1700000,6.1621e-11,
-1800000,6.0123e-11,
-1900000,5.7291e-11,
-2000000,5.5652e-11,
-2100000,5.5766e-11,
-2200000,5.8464e-11,
-2300000,6.278e-11,
-2400000,6.8918e-11,
-2500000,7.2158e-11,
-2600000,7.0412e-11,
-2700000,6.3669e-11,
-2800000,5.3778e-11,
-2900000,4.8795e-11,
-3000000,4.4868e-11,
-3100000,4.3325e-11,
-3200000,4.3766e-11,
-3300000,4.679e-11,
-3400000,4.8047e-11,
-3500000,4.9733e-11,
-3600000,5.0362e-11,
-3700000,4.8413e-11,
-3800000,4.2992e-11,
-3900000,3.8774e-11,
-4000000,3.595e-11,
-4100000,3.2326e-11,
-4200000,3.0776e-11,
-4300000,2.9334e-11,
-4400000,2.9213e-11,
-4500000,2.822e-11,
-4600000,2.8182e-11,
-4700000,2.7012e-11,
-4800000,2.7197e-11,
-4900000,2.5736e-11,
-5000000,2.573e-11,
-4950000,2.6329e-11,
-4850000,2.709e-11,
-4750000,2.7356e-11,
-4650000,2.8061e-11,
-4550000,2.7749e-11,
-4450000,2.8585e-11,
-4350000,2.8275e-11,
-4250000,3.03e-11,
-4150000,3.1923e-11,
-4050000,3.4434e-11,
-3950000,3.6715e-11,
-3850000,4.0867e-11,
-3750000,4.491e-11,
-3650000,4.9164e-11,
-3550000,4.932e-11,
-3450000,4.8072e-11,
-3350000,4.7709e-11,
-3250000,4.6677e-11,
-3150000,4.5486e-11,
-3050000,4.5666e-11,
-2950000,4.8178e-11,
-2850000,5.2454e-11,
-2750000,6.0233e-11,
-2650000,6.5915e-11,
-2550000,7.2072e-11,
-2450000,7.1327e-11,
-2350000,6.6431e-11,
-2250000,6.1922e-11,
-2150000,5.9522e-11,
-2050000,5.6895e-11,
-1950000,5.9117e-11,
-1850000,6.0435e-11,
-1750000,6.4765e-11,
-1650000,6.9149e-11,
-1550000,7.5899e-11,
-1450000,8.3295e-11,
-1350000,9.4314e-11,
-1250000,1.1322e-10,
-1150000,1.3213e-10,
-1050000,1.5329e-10,
-950000,1.4343e-10,
-850000,1.2971e-10,
-750000,1.1033e-10,
-650000,9.2645e-11,
-550000,8.1319e-11,
-450000,7.5083e-11,
-350000,7.5362e-11,
-250000,7.861e-11,
-150000,8.221e-11,
-50000,8.5266e-11,
50000,8.9557e-11,
150000,9.5511e-11,
