General parameters:
Start time: 2023              9              5             14             35        33.7619
Finish time: 2023              9              5             14             44      36.141324
Dwell time (ms): 3750.000000
Source chamber pressure: Error-S
Differential chamber pressure: 7.98e-07
Sample chamber pressure: 3.75e-08
Example position (nm): -4572000.000000,230000.000000,-2700000.000000
Rotation angle (udeg): 124999890.000000
==========
Instrument status: 
0:Data Directory:/icon/data/2023_08_MoS2_5um_hbn_sub/
1:Sample:MoS2
2:Comments:no
3:PinholePlate:#C13
4:z_Zero:4200
5:Operator:djw77/nav31/kw570
==========
zscan inputs: 
z_sep:50000
z_range:500000 -6000000
data_path:/icon/data/2023_08_MoS2_5um_hbn_sub/
example_pos:-4572000   230000 -2700000
N_dwell:250
sampling_period:15
make_plots:1
m1:0.98976
m2:-0.0073571
==========
Detector params:
Sampling period (ms): 15.000000
N dwell: 250.000000
Filament current (A): 1.540000
Filament emission (mA): 1.914858
Solenoid current (A): NaN
Solenoid shim current (A): NaN
Lens params:
0  685
1  300
2  125
3      -0.002
4       -0.01
5       0.012
6         0.8
7         2.1
8         2.8
9  3000
10  1450
11         0.85
12   0
==========
Data:
z(nm),I(A)
500000,7.8414e-11,
400000,8.3067e-11,
300000,9.0789e-11,
200000,1.0826e-10,
100000,1.1663e-10,
0,1.2037e-10,
-100000,1.3226e-10,
-200000,1.3744e-10,
-300000,1.4163e-10,
-400000,1.4663e-10,
-500000,1.5183e-10,
-600000,1.5272e-10,
-700000,1.585e-10,
-800000,1.6628e-10,
-900000,1.6616e-10,
-1000000,1.6715e-10,
-1100000,1.6335e-10,
-1200000,1.6113e-10,
-1300000,1.5682e-10,
-1400000,1.5398e-10,
-1500000,1.5115e-10,
-1600000,1.48e-10,
-1700000,1.4703e-10,
-1800000,1.4357e-10,
-1900000,1.4016e-10,
-2000000,1.372e-10,
-2100000,1.3437e-10,
-2200000,1.3267e-10,
-2300000,1.3262e-10,
-2400000,1.32e-10,
-2500000,1.3364e-10,
-2600000,1.3397e-10,
-2700000,1.3135e-10,
-2800000,1.295e-10,
-2900000,1.253e-10,
-3000000,1.1923e-10,
-3100000,1.1292e-10,
-3200000,1.0854e-10,
-3300000,1.0038e-10,
-3400000,9.6339e-11,
-3500000,9.3939e-11,
-3600000,9.0665e-11,
-3700000,8.6243e-11,
-3800000,8.3354e-11,
-3900000,7.9706e-11,
-4000000,7.7215e-11,
-4100000,7.3524e-11,
-4200000,6.9073e-11,
-4300000,6.4889e-11,
-4400000,6.1969e-11,
-4500000,5.9052e-11,
-4600000,5.5344e-11,
-4700000,5.3716e-11,
-4800000,5.1888e-11,
-4900000,5.0588e-11,
-5000000,4.8644e-11,
-5100000,4.7033e-11,
-5200000,4.676e-11,
-5300000,4.5502e-11,
-5400000,4.4155e-11,
-5500000,4.551e-11,
-5600000,4.5483e-11,
-5700000,4.3967e-11,
-5800000,4.1413e-11,
-5900000,3.9926e-11,
-6000000,3.9114e-11,
-5950000,3.95e-11,
-5850000,3.9891e-11,
-5750000,4.1255e-11,
-5650000,4.3466e-11,
-5550000,4.4715e-11,
-5450000,4.4207e-11,
-5350000,4.4166e-11,
-5250000,4.4655e-11,
-5150000,4.6723e-11,
-5050000,4.7711e-11,
-4950000,4.9112e-11,
-4850000,5.065e-11,
-4750000,5.2228e-11,
-4650000,5.4893e-11,
-4550000,5.7662e-11,
-4450000,6.1478e-11,
-4350000,6.4474e-11,
-4250000,6.7676e-11,
-4150000,7.0905e-11,
-4050000,7.5759e-11,
-3950000,7.8727e-11,
-3850000,8.1374e-11,
-3750000,8.451e-11,
-3650000,8.9652e-11,
-3550000,9.0934e-11,
-3450000,9.5429e-11,
-3350000,9.8647e-11,
-3250000,1.0332e-10,
-3150000,1.0821e-10,
-3050000,1.1341e-10,
-2950000,1.1671e-10,
-2850000,1.2256e-10,
-2750000,1.2674e-10,
-2650000,1.2811e-10,
-2550000,1.2967e-10,
-2450000,1.2752e-10,
-2350000,1.3111e-10,
-2250000,1.3225e-10,
-2150000,1.3212e-10,
-2050000,1.3441e-10,
-1950000,1.3539e-10,
-1850000,1.3803e-10,
-1750000,1.4314e-10,
-1650000,1.442e-10,
-1550000,1.4803e-10,
-1450000,1.5034e-10,
-1350000,1.5613e-10,
-1250000,1.5896e-10,
-1150000,1.6062e-10,
-1050000,1.6387e-10,
-950000,1.6339e-10,
-850000,1.6468e-10,
-750000,1.5922e-10,
-650000,1.4931e-10,
-550000,1.4497e-10,
-450000,1.4294e-10,
-350000,1.3686e-10,
-250000,1.2381e-10,
-150000,1.1707e-10,
-50000,1.1265e-10,
50000,1.0986e-10,
150000,1.0483e-10,
250000,9.1937e-11,
350000,8.3708e-11,
450000,7.603e-11,
