General parameters:
Start time: 2023              8             21             20             51      21.544184
Finish time: 2023              8             21             20             57      17.924523
Dwell time (ms): 3000.000000
Source chamber pressure: 2.00e+3
Differential chamber pressure: 7.97e-07
Sample chamber pressure: 3.84e-08
Example position (nm): -3871027.084709,138717.556962,-1000000.000000
Rotation angle (udeg): 59999755.000000
==========
Instrument status: 
0:Data Directory:/icon/data/2023_08_MoS2_5um_hbn_sub/
1:Sample:MoS2
2:Comments:no
3:PinholePlate:#C13
4:z_Zero:4200
5:Operator:djw77/nav31/kw570
==========
zscan inputs: 
z_sep:50000
z_range:200000 -5000000
data_path:/icon/data/2023_08_MoS2_5um_hbn_sub/
example_pos:-3871027.0847      138717.55696          -1000000
N_dwell:200
sampling_period:15
make_plots:0
m1:0.98976
m2:-0.0073571
==========
Detector params:
Sampling period (ms): 15.000000
N dwell: 200.000000
Filament current (A): 1.540000
Filament emission (mA): 1.737018
Solenoid current (A): NaN
Solenoid shim current (A): NaN
Lens params:
0  685
1  300
2  125
3      -0.002
4       -0.01
5       0.012
6         0.8
7         2.1
8         2.8
9  3000
10  1450
11         0.85
12   0
==========
Data:
z(nm),I(A)
200000,4.1694e-11,
100000,4.2149e-11,
0,4.236e-11,
-100000,4.1404e-11,
-200000,4.1771e-11,
-300000,4.2878e-11,
-400000,4.382e-11,
-500000,4.3734e-11,
-600000,4.4593e-11,
-700000,4.4093e-11,
-800000,4.5489e-11,
-900000,4.5183e-11,
-1000000,4.6817e-11,
-1100000,4.7421e-11,
-1200000,4.7559e-11,
-1300000,4.6772e-11,
-1400000,4.7354e-11,
-1500000,4.8172e-11,
-1600000,4.8608e-11,
-1700000,4.7996e-11,
-1800000,4.8201e-11,
-1900000,4.9013e-11,
-2000000,4.8906e-11,
-2100000,4.8798e-11,
-2200000,4.8566e-11,
-2300000,4.7542e-11,
-2400000,4.7012e-11,
-2500000,4.6869e-11,
-2600000,4.527e-11,
-2700000,4.6574e-11,
-2800000,4.5194e-11,
-2900000,4.4443e-11,
-3000000,4.3996e-11,
-3100000,4.3832e-11,
-3200000,4.3458e-11,
-3300000,4.2005e-11,
-3400000,4.1018e-11,
-3500000,3.9989e-11,
-3600000,4.0045e-11,
-3700000,3.907e-11,
-3800000,3.7544e-11,
-3900000,3.839e-11,
-4000000,3.7322e-11,
-4100000,3.6773e-11,
-4200000,3.5877e-11,
-4300000,3.4408e-11,
-4400000,3.518e-11,
-4500000,3.4367e-11,
-4600000,3.3565e-11,
-4700000,3.2391e-11,
-4800000,3.1646e-11,
-4900000,3.1337e-11,
-5000000,3.1274e-11,
-4950000,3.1461e-11,
-4850000,3.1397e-11,
-4750000,3.1679e-11,
-4650000,3.2874e-11,
-4550000,3.3811e-11,
-4450000,3.4381e-11,
-4350000,3.5129e-11,
-4250000,3.4869e-11,
-4150000,3.5679e-11,
-4050000,3.6676e-11,
-3950000,3.7584e-11,
-3850000,3.8104e-11,
-3750000,3.8733e-11,
-3650000,3.974e-11,
-3550000,3.9593e-11,
-3450000,4.056e-11,
-3350000,4.1552e-11,
-3250000,4.1904e-11,
-3150000,4.3171e-11,
-3050000,4.4241e-11,
-2950000,4.3948e-11,
-2850000,4.3903e-11,
-2750000,4.5413e-11,
-2650000,4.4578e-11,
-2550000,4.7274e-11,
-2450000,4.6986e-11,
-2350000,4.6984e-11,
-2250000,4.815e-11,
-2150000,4.7904e-11,
-2050000,4.9086e-11,
-1950000,4.8331e-11,
-1850000,4.8493e-11,
-1750000,4.8392e-11,
-1650000,4.752e-11,
-1550000,4.8436e-11,
-1450000,4.6944e-11,
-1350000,4.8468e-11,
-1250000,4.8095e-11,
-1150000,4.7699e-11,
-1050000,4.6313e-11,
-950000,4.5266e-11,
-850000,4.5943e-11,
-750000,4.4927e-11,
-650000,4.4908e-11,
-550000,4.3485e-11,
-450000,4.4097e-11,
-350000,4.3363e-11,
-250000,4.3136e-11,
-150000,4.2187e-11,
-50000,4.0767e-11,
50000,4.155e-11,
150000,4.1731e-11,
