General parameters:
Start time: 2023              8             28              4             27      49.586817
Finish time: 2023              8             28              4             33      46.378287
Dwell time (ms): 3000.000000
Source chamber pressure: 2.00e+3
Differential chamber pressure: 6.32e-07
Sample chamber pressure: 3.62e-08
Example position (nm): -3137220.517469,315686.229218,-1000000.000000
Rotation angle (udeg): 109999920.000000
==========
Instrument status: 
0:Data Directory:/icon/data/2023_08_MoS2_5um_hbn_sub/
1:Sample:MoS2
2:Comments:no
3:PinholePlate:#C13
4:z_Zero:4200
5:Operator:djw77/nav31/kw570
==========
zscan inputs: 
z_sep:50000
z_range:200000 -5000000
data_path:/icon/data/2023_08_MoS2_5um_hbn_sub/
example_pos:-3137220.5175      315686.22922          -1000000
N_dwell:200
sampling_period:15
make_plots:1
m1:0.98976
m2:-0.0073571
==========
Detector params:
Sampling period (ms): 15.000000
N dwell: 200.000000
Filament current (A): 1.540000
Filament emission (mA): 1.902888
Solenoid current (A): NaN
Solenoid shim current (A): NaN
Lens params:
0  685
1  300
2  125
3      -0.002
4       -0.01
5       0.012
6         0.8
7         2.1
8         2.8
9  3000
10  1450
11         0.85
12   0
==========
Data:
z(nm),I(A)
200000,5.0271e-11,
100000,5.0506e-11,
0,5.0506e-11,
-100000,5.1469e-11,
-200000,5.2129e-11,
-300000,5.3523e-11,
-400000,5.5854e-11,
-500000,5.9999e-11,
-600000,7.1089e-11,
-700000,8.7586e-11,
-800000,1.2285e-10,
-900000,1.5283e-10,
-1000000,1.4154e-10,
-1100000,1.0475e-10,
-1200000,8.2008e-11,
-1300000,7.0302e-11,
-1400000,6.66e-11,
-1500000,7.0271e-11,
-1600000,8.313e-11,
-1700000,9.4359e-11,
-1800000,9.5586e-11,
-1900000,8.7052e-11,
-2000000,7.0988e-11,
-2100000,5.919e-11,
-2200000,5.4165e-11,
-2300000,5.2431e-11,
-2400000,5.4508e-11,
-2500000,5.5796e-11,
-2600000,5.7249e-11,
-2700000,5.6e-11,
-2800000,5.484e-11,
-2900000,5.3302e-11,
-3000000,5.3832e-11,
-3100000,5.3573e-11,
-3200000,5.4987e-11,
-3300000,5.8345e-11,
-3400000,6.0983e-11,
-3500000,5.9358e-11,
-3600000,5.7113e-11,
-3700000,5.283e-11,
-3800000,4.8407e-11,
-3900000,4.3277e-11,
-4000000,4.1389e-11,
-4100000,3.8946e-11,
-4200000,3.8313e-11,
-4300000,3.7048e-11,
-4400000,3.686e-11,
-4500000,3.6969e-11,
-4600000,3.7571e-11,
-4700000,3.6519e-11,
-4800000,3.764e-11,
-4900000,3.5551e-11,
-5000000,3.3934e-11,
-4950000,3.5726e-11,
-4850000,3.6315e-11,
-4750000,3.7217e-11,
-4650000,3.8155e-11,
-4550000,3.8792e-11,
-4450000,3.8751e-11,
-4350000,3.7778e-11,
-4250000,3.7593e-11,
-4150000,3.8504e-11,
-4050000,3.918e-11,
-3950000,4.1763e-11,
-3850000,4.5339e-11,
-3750000,5.1151e-11,
-3650000,5.4967e-11,
-3550000,5.8286e-11,
-3450000,6.1185e-11,
-3350000,6.1242e-11,
-3250000,5.6948e-11,
-3150000,5.5226e-11,
-3050000,5.3193e-11,
-2950000,5.3099e-11,
-2850000,5.5129e-11,
-2750000,5.6754e-11,
-2650000,5.7591e-11,
-2550000,5.6418e-11,
-2450000,5.5534e-11,
-2350000,5.3061e-11,
-2250000,5.2962e-11,
-2150000,5.613e-11,
-2050000,6.1513e-11,
-1950000,7.9141e-11,
-1850000,9.1064e-11,
-1750000,9.5652e-11,
-1650000,9.2116e-11,
-1550000,7.7624e-11,
-1450000,6.8774e-11,
-1350000,6.7131e-11,
-1250000,7.3495e-11,
-1150000,9.0447e-11,
-1050000,1.2053e-10,
-950000,1.5129e-10,
-850000,1.4721e-10,
-750000,1.0666e-10,
-650000,7.8745e-11,
-550000,6.5996e-11,
-450000,5.8128e-11,
-350000,5.5083e-11,
-250000,5.351e-11,
-150000,5.3126e-11,
-50000,5.1465e-11,
50000,5.1032e-11,
150000,5.1157e-11,
