General parameters:
Start time: 2023              8             21             22             57      58.288458
Finish time: 2023              8             21             23              3      58.128292
Dwell time (ms): 3000.000000
Source chamber pressure: 2.00e+3
Differential chamber pressure: 7.98e-07
Sample chamber pressure: 3.79e-08
Example position (nm): -3136435.661964,301486.490787,-1000000.000000
Rotation angle (udeg): 112500070.000000
==========
Instrument status: 
0:Data Directory:/icon/data/2023_08_MoS2_5um_hbn_sub/
1:Sample:MoS2
2:Comments:no
3:PinholePlate:#C13
4:z_Zero:4200
5:Operator:djw77/nav31/kw570
==========
zscan inputs: 
z_sep:50000
z_range:200000 -5000000
data_path:/icon/data/2023_08_MoS2_5um_hbn_sub/
example_pos:-3136435.662      301486.49079          -1000000
N_dwell:200
sampling_period:15
make_plots:0
m1:0.98976
m2:-0.0073571
==========
Detector params:
Sampling period (ms): 15.000000
N dwell: 200.000000
Filament current (A): 1.540000
Filament emission (mA): 1.743174
Solenoid current (A): NaN
Solenoid shim current (A): NaN
Lens params:
0  685
1  300
2  125
3      -0.002
4       -0.01
5       0.012
6         0.8
7         2.1
8         2.8
9  3000
10  1450
11         0.85
12   0
==========
Data:
z(nm),I(A)
200000,4.4236e-11,
100000,4.4398e-11,
0,4.4446e-11,
-100000,4.5543e-11,
-200000,4.5812e-11,
-300000,4.6229e-11,
-400000,4.5916e-11,
-500000,4.5827e-11,
-600000,4.5754e-11,
-700000,4.6231e-11,
-800000,4.591e-11,
-900000,4.5989e-11,
-1000000,4.6709e-11,
-1100000,4.7858e-11,
-1200000,4.8186e-11,
-1300000,4.7985e-11,
-1400000,4.735e-11,
-1500000,4.9226e-11,
-1600000,4.9079e-11,
-1700000,4.7627e-11,
-1800000,4.8891e-11,
-1900000,4.7683e-11,
-2000000,4.7551e-11,
-2100000,4.6432e-11,
-2200000,4.7181e-11,
-2300000,4.6518e-11,
-2400000,4.5729e-11,
-2500000,4.5525e-11,
-2600000,4.5246e-11,
-2700000,4.4072e-11,
-2800000,4.3891e-11,
-2900000,4.3894e-11,
-3000000,4.1901e-11,
-3100000,4.2168e-11,
-3200000,4.1201e-11,
-3300000,4.1106e-11,
-3400000,3.9875e-11,
-3500000,3.9374e-11,
-3600000,3.849e-11,
-3700000,3.8306e-11,
-3800000,3.7254e-11,
-3900000,3.6626e-11,
-4000000,3.6016e-11,
-4100000,3.5085e-11,
-4200000,3.4639e-11,
-4300000,3.3582e-11,
-4400000,3.3484e-11,
-4500000,3.2844e-11,
-4600000,3.2754e-11,
-4700000,3.1332e-11,
-4800000,3.1359e-11,
-4900000,3.1376e-11,
-5000000,3.0398e-11,
-4950000,3.0398e-11,
-4850000,3.1386e-11,
-4750000,3.1552e-11,
-4650000,3.1225e-11,
-4550000,3.1356e-11,
-4450000,3.3087e-11,
-4350000,3.3447e-11,
-4250000,3.3984e-11,
-4150000,3.4257e-11,
-4050000,3.5305e-11,
-3950000,3.6771e-11,
-3850000,3.6719e-11,
-3750000,3.7581e-11,
-3650000,3.7535e-11,
-3550000,3.9137e-11,
-3450000,3.8825e-11,
-3350000,4.0718e-11,
-3250000,4.1273e-11,
-3150000,4.2354e-11,
-3050000,4.2369e-11,
-2950000,4.336e-11,
-2850000,4.4108e-11,
-2750000,4.3627e-11,
-2650000,4.4719e-11,
-2550000,4.5103e-11,
-2450000,4.4573e-11,
-2350000,4.6234e-11,
-2250000,4.6569e-11,
-2150000,4.6266e-11,
-2050000,4.6907e-11,
-1950000,4.7208e-11,
-1850000,4.7296e-11,
-1750000,4.7265e-11,
-1650000,4.7423e-11,
-1550000,4.8172e-11,
-1450000,4.7051e-11,
-1350000,4.7187e-11,
-1250000,4.7316e-11,
-1150000,4.7537e-11,
-1050000,4.7036e-11,
-950000,4.6512e-11,
-850000,4.6937e-11,
-750000,4.6638e-11,
-650000,4.672e-11,
-550000,4.5037e-11,
-450000,4.5556e-11,
-350000,4.5063e-11,
-250000,4.4477e-11,
-150000,4.4936e-11,
-50000,4.5098e-11,
50000,4.4213e-11,
150000,4.4091e-11,
