General parameters:
Start time: 2023              8             21             20             57      23.079498
Finish time: 2023              8             21             21              3      19.323063
Dwell time (ms): 3000.000000
Source chamber pressure: 2.00e+3
Differential chamber pressure: 7.97e-07
Sample chamber pressure: 3.84e-08
Example position (nm): -3841582.559877,161305.911762,-1000000.000000
Rotation angle (udeg): 62500185.000000
==========
Instrument status: 
0:Data Directory:/icon/data/2023_08_MoS2_5um_hbn_sub/
1:Sample:MoS2
2:Comments:no
3:PinholePlate:#C13
4:z_Zero:4200
5:Operator:djw77/nav31/kw570
==========
zscan inputs: 
z_sep:50000
z_range:200000 -5000000
data_path:/icon/data/2023_08_MoS2_5um_hbn_sub/
example_pos:-3841582.5599      161305.91176          -1000000
N_dwell:200
sampling_period:15
make_plots:0
m1:0.98976
m2:-0.0073571
==========
Detector params:
Sampling period (ms): 15.000000
N dwell: 200.000000
Filament current (A): 1.540000
Filament emission (mA): 1.738044
Solenoid current (A): NaN
Solenoid shim current (A): NaN
Lens params:
0  685
1  300
2  125
3      -0.002
4       -0.01
5       0.012
6         0.8
7         2.1
8         2.8
9  3000
10  1450
11         0.85
12   0
==========
Data:
z(nm),I(A)
200000,4.1906e-11,
100000,4.2387e-11,
0,4.2625e-11,
-100000,4.1786e-11,
-200000,4.2722e-11,
-300000,4.2614e-11,
-400000,4.3136e-11,
-500000,4.3274e-11,
-600000,4.4599e-11,
-700000,4.5574e-11,
-800000,4.4661e-11,
-900000,4.6278e-11,
-1000000,4.5724e-11,
-1100000,4.7425e-11,
-1200000,4.6876e-11,
-1300000,4.761e-11,
-1400000,4.8623e-11,
-1500000,4.7755e-11,
-1600000,4.9328e-11,
-1700000,4.9298e-11,
-1800000,4.858e-11,
-1900000,4.9045e-11,
-2000000,4.9495e-11,
-2100000,4.8529e-11,
-2200000,4.9142e-11,
-2300000,4.8036e-11,
-2400000,4.7837e-11,
-2500000,4.6972e-11,
-2600000,4.7602e-11,
-2700000,4.6448e-11,
-2800000,4.5172e-11,
-2900000,4.5361e-11,
-3000000,4.3573e-11,
-3100000,4.4199e-11,
-3200000,4.2451e-11,
-3300000,4.2036e-11,
-3400000,4.1369e-11,
-3500000,4.0205e-11,
-3600000,4.0338e-11,
-3700000,3.9468e-11,
-3800000,3.9015e-11,
-3900000,3.7144e-11,
-4000000,3.6829e-11,
-4100000,3.5935e-11,
-4200000,3.637e-11,
-4300000,3.4882e-11,
-4400000,3.4908e-11,
-4500000,3.4822e-11,
-4600000,3.2948e-11,
-4700000,3.2963e-11,
-4800000,3.2248e-11,
-4900000,3.192e-11,
-5000000,3.1641e-11,
-4950000,3.1429e-11,
-4850000,3.2235e-11,
-4750000,3.3266e-11,
-4650000,3.3188e-11,
-4550000,3.4542e-11,
-4450000,3.4248e-11,
-4350000,3.5233e-11,
-4250000,3.5878e-11,
-4150000,3.6958e-11,
-4050000,3.7373e-11,
-3950000,3.8333e-11,
-3850000,3.8635e-11,
-3750000,3.9045e-11,
-3650000,3.9607e-11,
-3550000,4.02e-11,
-3450000,4.1459e-11,
-3350000,4.1594e-11,
-3250000,4.2181e-11,
-3150000,4.2508e-11,
-3050000,4.4028e-11,
-2950000,4.4341e-11,
-2850000,4.4838e-11,
-2750000,4.5144e-11,
-2650000,4.5812e-11,
-2550000,4.7186e-11,
-2450000,4.7372e-11,
-2350000,4.7787e-11,
-2250000,4.7312e-11,
-2150000,4.9189e-11,
-2050000,4.7796e-11,
-1950000,4.8311e-11,
-1850000,4.8515e-11,
-1750000,4.82e-11,
-1650000,4.8777e-11,
-1550000,4.7879e-11,
-1450000,4.8067e-11,
-1350000,4.7096e-11,
-1250000,4.7367e-11,
-1150000,4.7847e-11,
-1050000,4.6882e-11,
-950000,4.6113e-11,
-850000,4.4672e-11,
-750000,4.5266e-11,
-650000,4.4932e-11,
-550000,4.4081e-11,
-450000,4.3571e-11,
-350000,4.4142e-11,
-250000,4.1767e-11,
-150000,4.3015e-11,
-50000,4.1637e-11,
50000,4.2131e-11,
150000,4.1738e-11,
