General parameters:
Start time: 2023              8             23             10             57      46.496743
Finish time: 2023              8             23             11              5      26.545632
Dwell time (ms): 3750.000000
Source chamber pressure: 2.00e+3
Differential chamber pressure: 7.75e-07
Sample chamber pressure: 3.67e-08
Example position (nm): -3470000.000000,316000.000000,-1000000.000000
Rotation angle (udeg): 89999980.000000
==========
Instrument status: 
0:Data Directory:/icon/data/2023_08_MoS2_5um_hbn_sub/
1:Sample:MoS2
2:Comments:no
3:PinholePlate:#C13
4:z_Zero:4200
5:Operator:djw77/nav31/kw570
==========
zscan inputs: 
z_sep:50000
z_range:500000 -5000000
data_path:/icon/data/2023_08_MoS2_5um_hbn_sub/
example_pos:-3470000   316000 -1000000
N_dwell:250
sampling_period:15
make_plots:1
m1:0.98976
m2:-0.0073571
==========
Detector params:
Sampling period (ms): 15.000000
N dwell: 250.000000
Filament current (A): 1.540000
Filament emission (mA): 1.811574
Solenoid current (A): NaN
Solenoid shim current (A): NaN
Lens params:
0  685
1  300
2  125
3      -0.002
4       -0.01
5       0.012
6         0.8
7         2.1
8         2.8
9  3000
10  1450
11         0.85
12   0
==========
Data:
z(nm),I(A)
500000,4.1684e-11,
400000,4.649e-11,
300000,5.3271e-11,
200000,6.2024e-11,
100000,6.157e-11,
0,5.8479e-11,
-100000,5.3341e-11,
-200000,4.9203e-11,
-300000,4.4732e-11,
-400000,4.2717e-11,
-500000,4.2866e-11,
-600000,4.8812e-11,
-700000,6.4327e-11,
-800000,9.0081e-11,
-900000,1.1915e-10,
-1000000,1.2615e-10,
-1100000,1.1295e-10,
-1200000,8.5688e-11,
-1300000,6.482e-11,
-1400000,5.1803e-11,
-1500000,4.5047e-11,
-1600000,4.2476e-11,
-1700000,3.9485e-11,
-1800000,3.9232e-11,
-1900000,3.7716e-11,
-2000000,3.8661e-11,
-2100000,3.9234e-11,
-2200000,4.1687e-11,
-2300000,4.7123e-11,
-2400000,5.2704e-11,
-2500000,5.6006e-11,
-2600000,5.7158e-11,
-2700000,5.1394e-11,
-2800000,4.3641e-11,
-2900000,3.6536e-11,
-3000000,3.3052e-11,
-3100000,3.0822e-11,
-3200000,3.1378e-11,
-3300000,3.1554e-11,
-3400000,3.2096e-11,
-3500000,3.2737e-11,
-3600000,3.2788e-11,
-3700000,3.0944e-11,
-3800000,2.9593e-11,
-3900000,2.7284e-11,
-4000000,2.5496e-11,
-4100000,2.4805e-11,
-4200000,2.3567e-11,
-4300000,2.3596e-11,
-4400000,2.282e-11,
-4500000,2.1954e-11,
-4600000,2.1139e-11,
-4700000,2.0732e-11,
-4800000,2.0582e-11,
-4900000,2.028e-11,
-5000000,1.9431e-11,
-4950000,1.9794e-11,
-4850000,1.98e-11,
-4750000,2.1098e-11,
-4650000,2.1269e-11,
-4550000,2.1425e-11,
-4450000,2.2454e-11,
-4350000,2.2862e-11,
-4250000,2.3244e-11,
-4150000,2.2957e-11,
-4050000,2.5199e-11,
-3950000,2.6576e-11,
-3850000,2.8097e-11,
-3750000,3.106e-11,
-3650000,3.2889e-11,
-3550000,3.2112e-11,
-3450000,3.2345e-11,
-3350000,3.1409e-11,
-3250000,3.1914e-11,
-3150000,3.0987e-11,
-3050000,3.0728e-11,
-2950000,3.4434e-11,
-2850000,3.8948e-11,
-2750000,4.583e-11,
-2650000,5.2961e-11,
-2550000,5.7738e-11,
-2450000,5.6862e-11,
-2350000,5.0298e-11,
-2250000,4.4505e-11,
-2150000,4.0267e-11,
-2050000,3.8137e-11,
-1950000,3.8562e-11,
-1850000,3.8925e-11,
-1750000,3.9783e-11,
-1650000,4.0987e-11,
-1550000,4.2818e-11,
-1450000,4.7168e-11,
-1350000,5.5836e-11,
-1250000,7.2925e-11,
-1150000,9.6141e-11,
-1050000,1.2036e-10,
-950000,1.2781e-10,
-850000,1.0866e-10,
-750000,7.9132e-11,
-650000,5.6276e-11,
-550000,4.5941e-11,
-450000,4.3779e-11,
-350000,4.4094e-11,
-250000,4.6014e-11,
-150000,5.0281e-11,
-50000,5.5208e-11,
50000,5.9057e-11,
150000,6.2981e-11,
250000,5.9676e-11,
350000,5.0978e-11,
450000,4.4416e-11,
