General parameters:
Start time: 2023              8             29              6             40         3.6226
Finish time: 2023              8             29              6             47       8.458876
Dwell time (ms): 3000.000000
Source chamber pressure: 2.00e+3
Differential chamber pressure: 6.02e-07
Sample chamber pressure: 3.58e-08
Example position (nm): -2697199.610810,87991.203696,-1000000.000000
Rotation angle (udeg): 142500065.000000
==========
Instrument status: 
0:Data Directory:/icon/data/2023_08_MoS2_5um_hbn_sub/
1:Sample:MoS2
2:Comments:no
3:PinholePlate:#C13
4:z_Zero:4200
5:Operator:djw77/nav31/kw570
==========
zscan inputs: 
z_sep:50000
z_range:200000 -6000000
data_path:/icon/data/2023_08_MoS2_5um_hbn_sub/
example_pos:-2697199.6108      87991.203696          -1000000
N_dwell:200
sampling_period:15
make_plots:1
m1:0.98976
m2:-0.0073571
==========
Detector params:
Sampling period (ms): 15.000000
N dwell: 200.000000
Filament current (A): 1.540000
Filament emission (mA): 1.925460
Solenoid current (A): NaN
Solenoid shim current (A): NaN
Lens params:
0  685
1  300
2  125
3      -0.002
4       -0.01
5       0.012
6         0.8
7         2.1
8         2.8
9  3000
10  1450
11         0.85
12   0
==========
Data:
z(nm),I(A)
200000,6.3222e-11,
100000,6.3908e-11,
0,6.4312e-11,
-100000,6.4641e-11,
-200000,6.5018e-11,
-300000,6.3684e-11,
-400000,6.3883e-11,
-500000,6.4484e-11,
-600000,6.5425e-11,
-700000,6.593e-11,
-800000,6.5206e-11,
-900000,6.6176e-11,
-1000000,6.6429e-11,
-1100000,6.7508e-11,
-1200000,6.6964e-11,
-1300000,6.7271e-11,
-1400000,6.686e-11,
-1500000,6.7029e-11,
-1600000,6.8213e-11,
-1700000,6.8391e-11,
-1800000,6.7517e-11,
-1900000,6.7613e-11,
-2000000,6.6836e-11,
-2100000,6.6433e-11,
-2200000,6.6006e-11,
-2300000,6.7518e-11,
-2400000,6.6511e-11,
-2500000,6.4175e-11,
-2600000,6.3315e-11,
-2700000,6.201e-11,
-2800000,6.2101e-11,
-2900000,6.1685e-11,
-3000000,6.0621e-11,
-3100000,5.9611e-11,
-3200000,5.8076e-11,
-3300000,5.7917e-11,
-3400000,5.7597e-11,
-3500000,5.5595e-11,
-3600000,5.6069e-11,
-3700000,5.3925e-11,
-3800000,5.3626e-11,
-3900000,5.1545e-11,
-4000000,5.1295e-11,
-4100000,4.9353e-11,
-4200000,4.9685e-11,
-4300000,4.8877e-11,
-4400000,4.6132e-11,
-4500000,4.7053e-11,
-4600000,4.6189e-11,
-4700000,4.5546e-11,
-4800000,4.468e-11,
-4900000,4.3694e-11,
-5000000,4.2583e-11,
-5100000,4.2476e-11,
-5200000,4.1829e-11,
-5300000,4.148e-11,
-5400000,4.09e-11,
-5500000,4.0928e-11,
-5600000,3.8983e-11,
-5700000,3.8507e-11,
-5800000,3.7875e-11,
-5900000,3.7294e-11,
-6000000,3.7164e-11,
-5950000,3.8154e-11,
-5850000,3.7736e-11,
-5750000,3.9114e-11,
-5650000,3.8674e-11,
-5550000,3.8917e-11,
-5450000,4.0753e-11,
-5350000,4.0562e-11,
-5250000,4.167e-11,
-5150000,4.267e-11,
-5050000,4.372e-11,
-4950000,4.4246e-11,
-4850000,4.4125e-11,
-4750000,4.4666e-11,
-4650000,4.551e-11,
-4550000,4.6234e-11,
-4450000,4.6981e-11,
-4350000,4.7408e-11,
-4250000,4.864e-11,
-4150000,4.9001e-11,
-4050000,5.0235e-11,
-3950000,5.2146e-11,
-3850000,5.269e-11,
-3750000,5.3907e-11,
-3650000,5.3973e-11,
-3550000,5.5229e-11,
-3450000,5.4604e-11,
-3350000,5.7217e-11,
-3250000,5.892e-11,
-3150000,5.8314e-11,
-3050000,6.0487e-11,
-2950000,6.0153e-11,
-2850000,6.1032e-11,
-2750000,6.1931e-11,
-2650000,6.2961e-11,
-2550000,6.3911e-11,
-2450000,6.557e-11,
-2350000,6.5397e-11,
-2250000,6.5857e-11,
-2150000,6.6215e-11,
-2050000,6.7277e-11,
-1950000,6.7421e-11,
-1850000,6.8617e-11,
-1750000,6.7391e-11,
-1650000,6.7269e-11,
-1550000,6.7776e-11,
-1450000,6.8315e-11,
-1350000,6.7215e-11,
-1250000,6.8787e-11,
-1150000,6.6124e-11,
-1050000,6.6877e-11,
-950000,6.687e-11,
-850000,6.6305e-11,
-750000,6.6795e-11,
-650000,6.5036e-11,
-550000,6.4499e-11,
-450000,6.48e-11,
-350000,6.4413e-11,
-250000,6.4686e-11,
-150000,6.3598e-11,
-50000,6.3353e-11,
50000,6.4268e-11,
150000,6.2937e-11,
