General parameters:
Start time: 2023              8             29              2             51       9.862042
Finish time: 2023              8             29              2             58      12.727864
Dwell time (ms): 3000.000000
Source chamber pressure: 2.00e+3
Differential chamber pressure: 6.07e-07
Sample chamber pressure: 3.51e-08
Example position (nm): -3880276.876745,139545.377392,-1000000.000000
Rotation angle (udeg): 62499845.000000
==========
Instrument status: 
0:Data Directory:/icon/data/2023_08_MoS2_5um_hbn_sub/
1:Sample:MoS2
2:Comments:no
3:PinholePlate:#C13
4:z_Zero:4200
5:Operator:djw77/nav31/kw570
==========
zscan inputs: 
z_sep:50000
z_range:200000 -6000000
data_path:/icon/data/2023_08_MoS2_5um_hbn_sub/
example_pos:-3880276.8767      139545.37739          -1000000
N_dwell:200
sampling_period:15
make_plots:1
m1:0.98976
m2:-0.0073571
==========
Detector params:
Sampling period (ms): 15.000000
N dwell: 200.000000
Filament current (A): 1.540000
Filament emission (mA): 1.918620
Solenoid current (A): NaN
Solenoid shim current (A): NaN
Lens params:
0  685
1  300
2  125
3      -0.002
4       -0.01
5       0.012
6         0.8
7         2.1
8         2.8
9  3000
10  1450
11         0.85
12   0
==========
Data:
z(nm),I(A)
200000,5.8775e-11,
100000,6.1344e-11,
0,6.3311e-11,
-100000,6.9544e-11,
-200000,6.7403e-11,
-300000,6.4769e-11,
-400000,7.0207e-11,
-500000,7.2644e-11,
-600000,7.4406e-11,
-700000,8.1724e-11,
-800000,9.3084e-11,
-900000,1.0552e-10,
-1000000,9.9949e-11,
-1100000,9.1318e-11,
-1200000,8.8403e-11,
-1300000,8.3972e-11,
-1400000,9.0446e-11,
-1500000,9.7752e-11,
-1600000,9.1879e-11,
-1700000,9.6416e-11,
-1800000,9.3778e-11,
-1900000,9.1961e-11,
-2000000,9.4026e-11,
-2100000,9.115e-11,
-2200000,8.6374e-11,
-2300000,8.6739e-11,
-2400000,8.2937e-11,
-2500000,8.5797e-11,
-2600000,8.5551e-11,
-2700000,8.2599e-11,
-2800000,8.1267e-11,
-2900000,7.7317e-11,
-3000000,7.4389e-11,
-3100000,7.5198e-11,
-3200000,7.2017e-11,
-3300000,7.2264e-11,
-3400000,6.7147e-11,
-3500000,6.4434e-11,
-3600000,6.1393e-11,
-3700000,5.8697e-11,
-3800000,5.5713e-11,
-3900000,5.4693e-11,
-4000000,5.3734e-11,
-4100000,5.1194e-11,
-4200000,4.8601e-11,
-4300000,4.7974e-11,
-4400000,4.6714e-11,
-4500000,4.467e-11,
-4600000,4.392e-11,
-4700000,4.1403e-11,
-4800000,4.0053e-11,
-4900000,3.9717e-11,
-5000000,3.771e-11,
-5100000,3.6705e-11,
-5200000,3.6676e-11,
-5300000,3.4877e-11,
-5400000,3.4162e-11,
-5500000,3.1952e-11,
-5600000,3.1874e-11,
-5700000,3.2193e-11,
-5800000,3.1123e-11,
-5900000,3.0939e-11,
-6000000,3.0665e-11,
-5950000,3.0462e-11,
-5850000,3.0518e-11,
-5750000,3.0245e-11,
-5650000,3.1605e-11,
-5550000,3.1789e-11,
-5450000,3.1875e-11,
-5350000,3.4607e-11,
-5250000,3.5185e-11,
-5150000,3.7111e-11,
-5050000,3.7365e-11,
-4950000,3.7948e-11,
-4850000,3.8723e-11,
-4750000,4.0613e-11,
-4650000,4.2178e-11,
-4550000,4.3219e-11,
-4450000,4.3825e-11,
-4350000,4.7576e-11,
-4250000,4.8865e-11,
-4150000,4.9319e-11,
-4050000,5.0838e-11,
-3950000,5.482e-11,
-3850000,5.5328e-11,
-3750000,5.6396e-11,
-3650000,5.8635e-11,
-3550000,6.2348e-11,
-3450000,6.6235e-11,
-3350000,6.964e-11,
-3250000,7.0175e-11,
-3150000,7.2672e-11,
-3050000,7.2368e-11,
-2950000,7.2385e-11,
-2850000,7.4685e-11,
-2750000,7.8647e-11,
-2650000,7.9527e-11,
-2550000,7.9698e-11,
-2450000,8.0169e-11,
-2350000,7.9746e-11,
-2250000,8.1414e-11,
-2150000,8.1869e-11,
-2050000,8.4005e-11,
-1950000,8.4659e-11,
-1850000,8.4169e-11,
-1750000,8.3325e-11,
-1650000,8.464e-11,
-1550000,8.8515e-11,
-1450000,8.6637e-11,
-1350000,7.9639e-11,
-1250000,7.2398e-11,
-1150000,7.7578e-11,
-1050000,7.7865e-11,
-950000,8.7563e-11,
-850000,8.6378e-11,
-750000,7.418e-11,
-650000,6.7779e-11,
-550000,6.7095e-11,
-450000,6.5421e-11,
-350000,6.2522e-11,
-250000,5.98e-11,
-150000,6.1396e-11,
-50000,6.2409e-11,
50000,6.0484e-11,
150000,5.9759e-11,
