General parameters:
Start time: 2023              8             29              3             34       3.466383
Finish time: 2023              8             29              3             41       8.400193
Dwell time (ms): 3000.000000
Source chamber pressure: 2.00e+3
Differential chamber pressure: 6.05e-07
Sample chamber pressure: 3.62e-08
Example position (nm): -3670411.321576,256280.621178,-1000000.000000
Rotation angle (udeg): 77499925.000000
==========
Instrument status: 
0:Data Directory:/icon/data/2023_08_MoS2_5um_hbn_sub/
1:Sample:MoS2
2:Comments:no
3:PinholePlate:#C13
4:z_Zero:4200
5:Operator:djw77/nav31/kw570
==========
zscan inputs: 
z_sep:50000
z_range:200000 -6000000
data_path:/icon/data/2023_08_MoS2_5um_hbn_sub/
example_pos:-3670411.3216      256280.62118          -1000000
N_dwell:200
sampling_period:15
make_plots:1
m1:0.98976
m2:-0.0073571
==========
Detector params:
Sampling period (ms): 15.000000
N dwell: 200.000000
Filament current (A): 1.540000
Filament emission (mA): 1.923408
Solenoid current (A): NaN
Solenoid shim current (A): NaN
Lens params:
0  685
1  300
2  125
3      -0.002
4       -0.01
5       0.012
6         0.8
7         2.1
8         2.8
9  3000
10  1450
11         0.85
12   0
==========
Data:
z(nm),I(A)
200000,2.0591e-10,
100000,1.8813e-10,
0,1.6017e-10,
-100000,1.3951e-10,
-200000,1.1332e-10,
-300000,9.7137e-11,
-400000,8.4693e-11,
-500000,8.1269e-11,
-600000,8.8871e-11,
-700000,1.1858e-10,
-800000,1.7135e-10,
-900000,2.3885e-10,
-1000000,2.6349e-10,
-1100000,2.4976e-10,
-1200000,1.89e-10,
-1300000,1.3482e-10,
-1400000,1.0609e-10,
-1500000,9.2119e-11,
-1600000,8.9963e-11,
-1700000,9.223e-11,
-1800000,9.734e-11,
-1900000,9.9884e-11,
-2000000,9.6485e-11,
-2100000,8.5711e-11,
-2200000,7.7394e-11,
-2300000,7.4261e-11,
-2400000,7.2511e-11,
-2500000,7.3108e-11,
-2600000,7.4539e-11,
-2700000,7.4862e-11,
-2800000,7.6305e-11,
-2900000,7.3981e-11,
-3000000,7.2625e-11,
-3100000,6.9895e-11,
-3200000,6.7269e-11,
-3300000,6.4224e-11,
-3400000,6.3121e-11,
-3500000,6.0424e-11,
-3600000,5.644e-11,
-3700000,5.5238e-11,
-3800000,5.1311e-11,
-3900000,4.8692e-11,
-4000000,4.6176e-11,
-4100000,4.4909e-11,
-4200000,4.4408e-11,
-4300000,4.349e-11,
-4400000,4.1909e-11,
-4500000,4.228e-11,
-4600000,4.1082e-11,
-4700000,4.0109e-11,
-4800000,3.9849e-11,
-4900000,3.9901e-11,
-5000000,3.9218e-11,
-5100000,3.7122e-11,
-5200000,3.5869e-11,
-5300000,3.4579e-11,
-5400000,3.4512e-11,
-5500000,3.4162e-11,
-5600000,3.3677e-11,
-5700000,3.2855e-11,
-5800000,3.2115e-11,
-5900000,3.1075e-11,
-6000000,3.0918e-11,
-5950000,3.0698e-11,
-5850000,3.1049e-11,
-5750000,3.1405e-11,
-5650000,3.3132e-11,
-5550000,3.3707e-11,
-5450000,3.4156e-11,
-5350000,3.4825e-11,
-5250000,3.5635e-11,
-5150000,3.6547e-11,
-5050000,3.8006e-11,
-4950000,3.9911e-11,
-4850000,4.0552e-11,
-4750000,4.1084e-11,
-4650000,4.0969e-11,
-4550000,4.1749e-11,
-4450000,4.1254e-11,
-4350000,4.2236e-11,
-4250000,4.3722e-11,
-4150000,4.4185e-11,
-4050000,4.5779e-11,
-3950000,4.798e-11,
-3850000,4.9766e-11,
-3750000,5.4352e-11,
-3650000,5.6611e-11,
-3550000,5.7689e-11,
-3450000,6.203e-11,
-3350000,6.3879e-11,
-3250000,6.4449e-11,
-3150000,6.7525e-11,
-3050000,6.968e-11,
-2950000,7.4919e-11,
-2850000,7.656e-11,
-2750000,7.6349e-11,
-2650000,7.3628e-11,
-2550000,7.3012e-11,
-2450000,7.1159e-11,
-2350000,7.2535e-11,
-2250000,7.4851e-11,
-2150000,8.1048e-11,
-2050000,9.1547e-11,
-1950000,9.9369e-11,
-1850000,1.0251e-10,
-1750000,9.809e-11,
-1650000,9.2159e-11,
-1550000,8.9074e-11,
-1450000,9.6277e-11,
-1350000,1.173e-10,
-1250000,1.5166e-10,
-1150000,2.1896e-10,
-1050000,2.6472e-10,
-950000,2.6483e-10,
-850000,2.2249e-10,
-750000,1.4921e-10,
-650000,1.0433e-10,
-550000,8.4147e-11,
-450000,8.1948e-11,
-350000,9.1204e-11,
-250000,1.0225e-10,
-150000,1.2569e-10,
-50000,1.4819e-10,
50000,1.7072e-10,
150000,1.9432e-10,
