General parameters:
Start time: 2023              8             21             13             42      34.255768
Finish time: 2023              8             21             13             48      28.801057
Dwell time (ms): 3000.000000
Source chamber pressure: 2.00e+3
Differential chamber pressure: 7.98e-07
Sample chamber pressure: 3.84e-08
Example position (nm): -3991065.829612,-1195.459089,-1000000.000000
Rotation angle (udeg): 47499580.000000
==========
Instrument status: 
0:Data Directory:/icon/data/2023_08_MoS2_5um_hbn_sub/
1:Sample:MoS2
2:Comments:no
3:PinholePlate:#C13
4:z_Zero:4200
5:Operator:djw77/nav31/kw570
==========
zscan inputs: 
z_sep:50000
z_range:200000 -5000000
data_path:/icon/data/2023_08_MoS2_5um_hbn_sub/
example_pos:-3991065.8296     -1195.4590885          -1000000
N_dwell:200
sampling_period:15
make_plots:0
m1:0.98976
m2:-0.0073571
==========
Detector params:
Sampling period (ms): 15.000000
N dwell: 200.000000
Filament current (A): 1.540000
Filament emission (mA): 1.747278
Solenoid current (A): NaN
Solenoid shim current (A): NaN
Lens params:
0  685
1  300
2  125
3      -0.002
4       -0.01
5       0.012
6         0.8
7         2.1
8         2.8
9  3000
10  1450
11         0.85
12   0
==========
Data:
z(nm),I(A)
200000,3.9967e-11,
100000,3.9772e-11,
0,3.9882e-11,
-100000,3.9368e-11,
-200000,4.0216e-11,
-300000,4.12e-11,
-400000,4.0707e-11,
-500000,4.2072e-11,
-600000,4.2718e-11,
-700000,4.2895e-11,
-800000,4.3049e-11,
-900000,4.4068e-11,
-1000000,4.4712e-11,
-1100000,4.5118e-11,
-1200000,4.5265e-11,
-1300000,4.614e-11,
-1400000,4.628e-11,
-1500000,4.5958e-11,
-1600000,4.5856e-11,
-1700000,4.6171e-11,
-1800000,4.6791e-11,
-1900000,4.6722e-11,
-2000000,4.6474e-11,
-2100000,4.6045e-11,
-2200000,4.691e-11,
-2300000,4.6507e-11,
-2400000,4.4713e-11,
-2500000,4.4238e-11,
-2600000,4.5101e-11,
-2700000,4.2893e-11,
-2800000,4.4035e-11,
-2900000,4.27e-11,
-3000000,4.2108e-11,
-3100000,4.1675e-11,
-3200000,4.0802e-11,
-3300000,3.9784e-11,
-3400000,4.0091e-11,
-3500000,3.8913e-11,
-3600000,3.9713e-11,
-3700000,3.7248e-11,
-3800000,3.7017e-11,
-3900000,3.5999e-11,
-4000000,3.5653e-11,
-4100000,3.5996e-11,
-4200000,3.4265e-11,
-4300000,3.4148e-11,
-4400000,3.3979e-11,
-4500000,3.2779e-11,
-4600000,3.207e-11,
-4700000,3.1599e-11,
-4800000,3.1052e-11,
-4900000,2.9645e-11,
-5000000,2.9351e-11,
-4950000,3.0395e-11,
-4850000,3.1079e-11,
-4750000,3.0937e-11,
-4650000,3.1198e-11,
-4550000,3.2183e-11,
-4450000,3.2947e-11,
-4350000,3.3384e-11,
-4250000,3.3731e-11,
-4150000,3.4415e-11,
-4050000,3.5581e-11,
-3950000,3.6122e-11,
-3850000,3.7096e-11,
-3750000,3.6825e-11,
-3650000,3.8242e-11,
-3550000,3.8166e-11,
-3450000,3.8178e-11,
-3350000,3.9316e-11,
-3250000,3.9801e-11,
-3150000,4.0143e-11,
-3050000,4.171e-11,
-2950000,4.2134e-11,
-2850000,4.2834e-11,
-2750000,4.3121e-11,
-2650000,4.483e-11,
-2550000,4.3657e-11,
-2450000,4.4196e-11,
-2350000,4.5225e-11,
-2250000,4.5631e-11,
-2150000,4.6703e-11,
-2050000,4.5644e-11,
-1950000,4.6736e-11,
-1850000,4.7134e-11,
-1750000,4.7191e-11,
-1650000,4.6668e-11,
-1550000,4.5342e-11,
-1450000,4.5646e-11,
-1350000,4.5554e-11,
-1250000,4.604e-11,
-1150000,4.4692e-11,
-1050000,4.58e-11,
-950000,4.402e-11,
-850000,4.2786e-11,
-750000,4.3269e-11,
-650000,4.2927e-11,
-550000,4.1462e-11,
-450000,4.1929e-11,
-350000,4.1268e-11,
-250000,4.0851e-11,
-150000,4.0726e-11,
-50000,3.9545e-11,
50000,4.0272e-11,
150000,3.9569e-11,
