General parameters:
Start time: 2023              8             29              5             28      28.050141
Finish time: 2023              8             29              5             35      32.787952
Dwell time (ms): 3000.000000
Source chamber pressure: 2.00e+3
Differential chamber pressure: 6.04e-07
Sample chamber pressure: 3.58e-08
Example position (nm): -3032723.203679,284222.780955,-1000000.000000
Rotation angle (udeg): 117499895.000000
==========
Instrument status: 
0:Data Directory:/icon/data/2023_08_MoS2_5um_hbn_sub/
1:Sample:MoS2
2:Comments:no
3:PinholePlate:#C13
4:z_Zero:4200
5:Operator:djw77/nav31/kw570
==========
zscan inputs: 
z_sep:50000
z_range:200000 -6000000
data_path:/icon/data/2023_08_MoS2_5um_hbn_sub/
example_pos:-3032723.2037      284222.78096          -1000000
N_dwell:200
sampling_period:15
make_plots:1
m1:0.98976
m2:-0.0073571
==========
Detector params:
Sampling period (ms): 15.000000
N dwell: 200.000000
Filament current (A): 1.540000
Filament emission (mA): 1.927170
Solenoid current (A): NaN
Solenoid shim current (A): NaN
Lens params:
0  685
1  300
2  125
3      -0.002
4       -0.01
5       0.012
6         0.8
7         2.1
8         2.8
9  3000
10  1450
11         0.85
12   0
==========
Data:
z(nm),I(A)
200000,7.1274e-11,
100000,7.1453e-11,
0,7.3704e-11,
-100000,7.2091e-11,
-200000,7.1515e-11,
-300000,7.4435e-11,
-400000,7.6351e-11,
-500000,8.0232e-11,
-600000,8.9347e-11,
-700000,1.0575e-10,
-800000,1.3452e-10,
-900000,1.526e-10,
-1000000,1.3957e-10,
-1100000,1.126e-10,
-1200000,9.8593e-11,
-1300000,8.7788e-11,
-1400000,8.5899e-11,
-1500000,9.4136e-11,
-1600000,1.1093e-10,
-1700000,1.2698e-10,
-1800000,1.3069e-10,
-1900000,1.2361e-10,
-2000000,1.0694e-10,
-2100000,8.7911e-11,
-2200000,8.0844e-11,
-2300000,8.0833e-11,
-2400000,8.9078e-11,
-2500000,1.0248e-10,
-2600000,1.1971e-10,
-2700000,1.2868e-10,
-2800000,1.2361e-10,
-2900000,1.0981e-10,
-3000000,9.5408e-11,
-3100000,8.0984e-11,
-3200000,7.3562e-11,
-3300000,6.6457e-11,
-3400000,6.5331e-11,
-3500000,6.4132e-11,
-3600000,6.4079e-11,
-3700000,6.2925e-11,
-3800000,5.9967e-11,
-3900000,5.7902e-11,
-4000000,5.4536e-11,
-4100000,5.2768e-11,
-4200000,5.0645e-11,
-4300000,4.9076e-11,
-4400000,4.8112e-11,
-4500000,4.5259e-11,
-4600000,4.6338e-11,
-4700000,4.3663e-11,
-4800000,4.2459e-11,
-4900000,4.1556e-11,
-5000000,4.0689e-11,
-5100000,3.9535e-11,
-5200000,3.9045e-11,
-5300000,3.8526e-11,
-5400000,3.7247e-11,
-5500000,3.6461e-11,
-5600000,3.7019e-11,
-5700000,3.4996e-11,
-5800000,3.4033e-11,
-5900000,3.478e-11,
-6000000,3.3253e-11,
-5950000,3.3004e-11,
-5850000,3.3495e-11,
-5750000,3.451e-11,
-5650000,3.4526e-11,
-5550000,3.6829e-11,
-5450000,3.5543e-11,
-5350000,3.7713e-11,
-5250000,3.8566e-11,
-5150000,3.933e-11,
-5050000,4.033e-11,
-4950000,4.0962e-11,
-4850000,4.3039e-11,
-4750000,4.4428e-11,
-4650000,4.4747e-11,
-4550000,4.5969e-11,
-4450000,4.6184e-11,
-4350000,4.8932e-11,
-4250000,5.0142e-11,
-4150000,5.238e-11,
-4050000,5.4027e-11,
-3950000,5.6803e-11,
-3850000,5.9147e-11,
-3750000,6.0802e-11,
-3650000,6.1502e-11,
-3550000,6.3544e-11,
-3450000,6.3231e-11,
-3350000,6.532e-11,
-3250000,6.9109e-11,
-3150000,7.4346e-11,
-3050000,8.4837e-11,
-2950000,9.8035e-11,
-2850000,1.1469e-10,
-2750000,1.2751e-10,
-2650000,1.2541e-10,
-2550000,1.1398e-10,
-2450000,9.8204e-11,
-2350000,8.6209e-11,
-2250000,7.9167e-11,
-2150000,8.1048e-11,
-2050000,9.1953e-11,
-1950000,1.1532e-10,
-1850000,1.3075e-10,
-1750000,1.3567e-10,
-1650000,1.2646e-10,
-1550000,1.0478e-10,
-1450000,9.044e-11,
-1350000,8.6639e-11,
-1250000,9.0877e-11,
-1150000,1.0379e-10,
-1050000,1.2151e-10,
-950000,1.4837e-10,
-850000,1.5034e-10,
-750000,1.2446e-10,
-650000,9.9726e-11,
-550000,8.6132e-11,
-450000,7.8893e-11,
-350000,7.5599e-11,
-250000,7.336e-11,
-150000,7.3144e-11,
-50000,7.1926e-11,
50000,7.2545e-11,
150000,7.2754e-11,
