General parameters:
Start time: 2023              8             28              4             33      51.595466
Finish time: 2023              8             28              4             39      47.767217
Dwell time (ms): 3000.000000
Source chamber pressure: 2.00e+3
Differential chamber pressure: 6.33e-07
Sample chamber pressure: 3.62e-08
Example position (nm): -3096225.439164,307491.610841,-1000000.000000
Rotation angle (udeg): 112500045.000000
==========
Instrument status: 
0:Data Directory:/icon/data/2023_08_MoS2_5um_hbn_sub/
1:Sample:MoS2
2:Comments:no
3:PinholePlate:#C13
4:z_Zero:4200
5:Operator:djw77/nav31/kw570
==========
zscan inputs: 
z_sep:50000
z_range:200000 -5000000
data_path:/icon/data/2023_08_MoS2_5um_hbn_sub/
example_pos:-3096225.4392      307491.61084          -1000000
N_dwell:200
sampling_period:15
make_plots:1
m1:0.98976
m2:-0.0073571
==========
Detector params:
Sampling period (ms): 15.000000
N dwell: 200.000000
Filament current (A): 1.540000
Filament emission (mA): 1.904256
Solenoid current (A): NaN
Solenoid shim current (A): NaN
Lens params:
0  685
1  300
2  125
3      -0.002
4       -0.01
5       0.012
6         0.8
7         2.1
8         2.8
9  3000
10  1450
11         0.85
12   0
==========
Data:
z(nm),I(A)
200000,5.0369e-11,
100000,5.0565e-11,
0,5.2158e-11,
-100000,5.3077e-11,
-200000,5.3583e-11,
-300000,5.4053e-11,
-400000,5.6197e-11,
-500000,6.0702e-11,
-600000,7.174e-11,
-700000,9.0186e-11,
-800000,1.2665e-10,
-900000,1.5181e-10,
-1000000,1.4016e-10,
-1100000,1.038e-10,
-1200000,8.2513e-11,
-1300000,7.1004e-11,
-1400000,6.7372e-11,
-1500000,7.351e-11,
-1600000,8.816e-11,
-1700000,1.0176e-10,
-1800000,1.0381e-10,
-1900000,9.5894e-11,
-2000000,7.8055e-11,
-2100000,6.3598e-11,
-2200000,5.5554e-11,
-2300000,5.6201e-11,
-2400000,5.9156e-11,
-2500000,6.0167e-11,
-2600000,6.571e-11,
-2700000,6.6672e-11,
-2800000,6.2938e-11,
-2900000,5.8776e-11,
-3000000,5.5985e-11,
-3100000,5.2384e-11,
-3200000,5.0409e-11,
-3300000,5.1863e-11,
-3400000,5.2021e-11,
-3500000,5.0659e-11,
-3600000,4.9169e-11,
-3700000,4.6366e-11,
-3800000,4.2882e-11,
-3900000,4.1393e-11,
-4000000,4.0845e-11,
-4100000,3.8078e-11,
-4200000,3.8155e-11,
-4300000,3.7718e-11,
-4400000,3.7996e-11,
-4500000,3.7286e-11,
-4600000,3.7251e-11,
-4700000,3.6881e-11,
-4800000,3.6646e-11,
-4900000,3.5685e-11,
-5000000,3.4155e-11,
-4950000,3.6586e-11,
-4850000,3.7497e-11,
-4750000,3.8764e-11,
-4650000,3.905e-11,
-4550000,3.8729e-11,
-4450000,3.9409e-11,
-4350000,3.8127e-11,
-4250000,3.7985e-11,
-4150000,3.7661e-11,
-4050000,3.8004e-11,
-3950000,4.0039e-11,
-3850000,4.1877e-11,
-3750000,4.4014e-11,
-3650000,4.7231e-11,
-3550000,4.8794e-11,
-3450000,5.0143e-11,
-3350000,5.2201e-11,
-3250000,5.2887e-11,
-3150000,5.1924e-11,
-3050000,5.3133e-11,
-2950000,5.6225e-11,
-2850000,6.1726e-11,
-2750000,6.6018e-11,
-2650000,6.595e-11,
-2550000,6.396e-11,
-2450000,6.1507e-11,
-2350000,5.7274e-11,
-2250000,5.5865e-11,
-2150000,5.7807e-11,
-2050000,6.7825e-11,
-1950000,8.7777e-11,
-1850000,9.9244e-11,
-1750000,1.0451e-10,
-1650000,9.8524e-11,
-1550000,8.2584e-11,
-1450000,7.007e-11,
-1350000,6.7411e-11,
-1250000,7.3899e-11,
-1150000,8.9731e-11,
-1050000,1.1574e-10,
-950000,1.4888e-10,
-850000,1.5115e-10,
-750000,1.1185e-10,
-650000,8.0364e-11,
-550000,6.6046e-11,
-450000,5.8059e-11,
-350000,5.5027e-11,
-250000,5.3886e-11,
-150000,5.2101e-11,
-50000,5.1642e-11,
50000,5.1143e-11,
150000,5.024e-11,
