General parameters:
Start time: 2023              8             21             13             36      33.099947
Finish time: 2023              8             21             13             42      29.062542
Dwell time (ms): 3000.000000
Source chamber pressure: 2.00e+3
Differential chamber pressure: 7.98e-07
Sample chamber pressure: 3.79e-08
Example position (nm): -4013279.869252,-30149.517238,-1000000.000000
Rotation angle (udeg): 45000345.000000
==========
Instrument status: 
0:Data Directory:/icon/data/2023_08_MoS2_5um_hbn_sub/
1:Sample:MoS2
2:Comments:no
3:PinholePlate:#C13
4:z_Zero:4200
5:Operator:djw77/nav31/kw570
==========
zscan inputs: 
z_sep:50000
z_range:200000 -5000000
data_path:/icon/data/2023_08_MoS2_5um_hbn_sub/
example_pos:-4013279.8693     -30149.517238          -1000000
N_dwell:200
sampling_period:15
make_plots:0
m1:0.98976
m2:-0.0073571
==========
Detector params:
Sampling period (ms): 15.000000
N dwell: 200.000000
Filament current (A): 1.540000
Filament emission (mA): 1.746936
Solenoid current (A): NaN
Solenoid shim current (A): NaN
Lens params:
0  685
1  300
2  125
3      -0.002
4       -0.01
5       0.012
6         0.8
7         2.1
8         2.8
9  3000
10  1450
11         0.85
12   0
==========
Data:
z(nm),I(A)
200000,3.9325e-11,
100000,3.9791e-11,
0,3.9625e-11,
-100000,4.03e-11,
-200000,3.9913e-11,
-300000,4.1095e-11,
-400000,4.0652e-11,
-500000,4.2295e-11,
-600000,4.24e-11,
-700000,4.2508e-11,
-800000,4.3052e-11,
-900000,4.2894e-11,
-1000000,4.4118e-11,
-1100000,4.4249e-11,
-1200000,4.622e-11,
-1300000,4.6611e-11,
-1400000,4.5865e-11,
-1500000,4.5934e-11,
-1600000,4.704e-11,
-1700000,4.692e-11,
-1800000,4.7199e-11,
-1900000,4.7129e-11,
-2000000,4.6406e-11,
-2100000,4.5967e-11,
-2200000,4.635e-11,
-2300000,4.6088e-11,
-2400000,4.5436e-11,
-2500000,4.516e-11,
-2600000,4.4637e-11,
-2700000,4.3935e-11,
-2800000,4.3277e-11,
-2900000,4.2029e-11,
-3000000,4.2533e-11,
-3100000,4.0649e-11,
-3200000,4.0277e-11,
-3300000,4.0353e-11,
-3400000,4.0703e-11,
-3500000,3.9247e-11,
-3600000,3.7805e-11,
-3700000,3.7329e-11,
-3800000,3.6776e-11,
-3900000,3.6614e-11,
-4000000,3.6088e-11,
-4100000,3.4765e-11,
-4200000,3.503e-11,
-4300000,3.41e-11,
-4400000,3.2694e-11,
-4500000,3.2805e-11,
-4600000,3.1403e-11,
-4700000,3.1577e-11,
-4800000,3.0559e-11,
-4900000,2.9907e-11,
-5000000,2.9877e-11,
-4950000,2.9904e-11,
-4850000,3.0418e-11,
-4750000,3.1264e-11,
-4650000,3.1335e-11,
-4550000,3.1666e-11,
-4450000,3.2077e-11,
-4350000,3.2451e-11,
-4250000,3.4447e-11,
-4150000,3.4684e-11,
-4050000,3.552e-11,
-3950000,3.6303e-11,
-3850000,3.607e-11,
-3750000,3.7279e-11,
-3650000,3.7622e-11,
-3550000,3.8113e-11,
-3450000,3.8997e-11,
-3350000,3.8938e-11,
-3250000,4.0434e-11,
-3150000,4.0506e-11,
-3050000,4.0521e-11,
-2950000,4.1722e-11,
-2850000,4.2519e-11,
-2750000,4.3253e-11,
-2650000,4.3819e-11,
-2550000,4.3997e-11,
-2450000,4.5212e-11,
-2350000,4.5622e-11,
-2250000,4.5957e-11,
-2150000,4.569e-11,
-2050000,4.5577e-11,
-1950000,4.6798e-11,
-1850000,4.7049e-11,
-1750000,4.5843e-11,
-1650000,4.6152e-11,
-1550000,4.6008e-11,
-1450000,4.6708e-11,
-1350000,4.5281e-11,
-1250000,4.5373e-11,
-1150000,4.4381e-11,
-1050000,4.5061e-11,
-950000,4.3695e-11,
-850000,4.3966e-11,
-750000,4.1938e-11,
-650000,4.2926e-11,
-550000,4.2225e-11,
-450000,4.1705e-11,
-350000,4.0432e-11,
-250000,4.0498e-11,
-150000,4.1007e-11,
-50000,3.9706e-11,
50000,3.9835e-11,
150000,4.0305e-11,
