General parameters:
Start time: 2023              8             23             13             35      29.085806
Finish time: 2023              8             23             13             41      26.127955
Dwell time (ms): 3000.000000
Source chamber pressure: 2.00e+3
Differential chamber pressure: 7.72e-07
Sample chamber pressure: 3.78e-08
Example position (nm): -3247936.889774,321336.782783,-1000000.000000
Rotation angle (udeg): 105000055.000000
==========
Instrument status: 
0:Data Directory:/icon/data/2023_08_MoS2_5um_hbn_sub/
1:Sample:MoS2
2:Comments:no
3:PinholePlate:#C13
4:z_Zero:4200
5:Operator:djw77/nav31/kw570
==========
zscan inputs: 
z_sep:50000
z_range:200000 -5000000
data_path:/icon/data/2023_08_MoS2_5um_hbn_sub/
example_pos:-3247936.8898      321336.78278          -1000000
N_dwell:200
sampling_period:15
make_plots:1
m1:0.98976
m2:-0.0073571
==========
Detector params:
Sampling period (ms): 15.000000
N dwell: 200.000000
Filament current (A): 1.540000
Filament emission (mA): 1.769166
Solenoid current (A): NaN
Solenoid shim current (A): NaN
Lens params:
0  685
1  300
2  125
3      -0.002
4       -0.01
5       0.012
6         0.8
7         2.1
8         2.8
9  3000
10  1450
11         0.85
12   0
==========
Data:
z(nm),I(A)
200000,3.9766e-11,
100000,4.0711e-11,
0,4.2288e-11,
-100000,4.1367e-11,
-200000,4.2061e-11,
-300000,4.1511e-11,
-400000,4.2798e-11,
-500000,4.3224e-11,
-600000,4.7517e-11,
-700000,5.0735e-11,
-800000,5.539e-11,
-900000,7.8175e-11,
-1000000,7.4597e-11,
-1100000,6.9232e-11,
-1200000,5.7843e-11,
-1300000,5.1862e-11,
-1400000,4.6458e-11,
-1500000,4.6205e-11,
-1600000,4.909e-11,
-1700000,5.1326e-11,
-1800000,4.9396e-11,
-1900000,4.573e-11,
-2000000,4.3056e-11,
-2100000,4.2486e-11,
-2200000,4.123e-11,
-2300000,4.1132e-11,
-2400000,4.1644e-11,
-2500000,4.0339e-11,
-2600000,4.056e-11,
-2700000,3.9213e-11,
-2800000,3.8314e-11,
-2900000,3.8156e-11,
-3000000,3.8066e-11,
-3100000,3.8477e-11,
-3200000,3.7428e-11,
-3300000,3.6412e-11,
-3400000,3.6525e-11,
-3500000,3.5351e-11,
-3600000,3.4352e-11,
-3700000,3.5019e-11,
-3800000,3.3074e-11,
-3900000,3.148e-11,
-4000000,3.2436e-11,
-4100000,3.1328e-11,
-4200000,3.0663e-11,
-4300000,2.9919e-11,
-4400000,2.835e-11,
-4500000,2.8293e-11,
-4600000,2.8269e-11,
-4700000,2.8548e-11,
-4800000,2.6664e-11,
-4900000,2.7055e-11,
-5000000,2.6077e-11,
-4950000,2.6409e-11,
-4850000,2.7095e-11,
-4750000,2.7059e-11,
-4650000,2.7958e-11,
-4550000,2.8528e-11,
-4450000,2.8787e-11,
-4350000,2.9774e-11,
-4250000,3.0178e-11,
-4150000,3.0654e-11,
-4050000,3.0575e-11,
-3950000,3.1761e-11,
-3850000,3.2177e-11,
-3750000,3.4178e-11,
-3650000,3.5649e-11,
-3550000,3.588e-11,
-3450000,3.7912e-11,
-3350000,3.7481e-11,
-3250000,3.7765e-11,
-3150000,3.7391e-11,
-3050000,3.8167e-11,
-2950000,3.8594e-11,
-2850000,3.8896e-11,
-2750000,3.9132e-11,
-2650000,4.0164e-11,
-2550000,4.0561e-11,
-2450000,4.0749e-11,
-2350000,4.1137e-11,
-2250000,4.1006e-11,
-2150000,4.1886e-11,
-2050000,4.2037e-11,
-1950000,4.4535e-11,
-1850000,4.7191e-11,
-1750000,5.0226e-11,
-1650000,5.1556e-11,
-1550000,4.9558e-11,
-1450000,4.6692e-11,
-1350000,4.9045e-11,
-1250000,5.4203e-11,
-1150000,6.3751e-11,
-1050000,7.392e-11,
-950000,7.7884e-11,
-850000,6.029e-11,
-750000,5.3431e-11,
-650000,5.0176e-11,
-550000,4.7033e-11,
-450000,4.417e-11,
-350000,4.2748e-11,
-250000,4.1824e-11,
-150000,4.2171e-11,
-50000,4.1777e-11,
50000,4.0763e-11,
150000,4.073e-11,
