General parameters:
Start time: 2023              8             28              1             33       0.190581
Finish time: 2023              8             28              1             38      55.735971
Dwell time (ms): 3000.000000
Source chamber pressure: 2.00e+3
Differential chamber pressure: 6.36e-07
Sample chamber pressure: 3.58e-08
Example position (nm): -4154016.899068,-184550.941120,-1000000.000000
Rotation angle (udeg): 37499660.000000
==========
Instrument status: 
0:Data Directory:/icon/data/2023_08_MoS2_5um_hbn_sub/
1:Sample:MoS2
2:Comments:no
3:PinholePlate:#C13
4:z_Zero:4200
5:Operator:djw77/nav31/kw570
==========
zscan inputs: 
z_sep:50000
z_range:200000 -5000000
data_path:/icon/data/2023_08_MoS2_5um_hbn_sub/
example_pos:-4154016.8991     -184550.94112          -1000000
N_dwell:200
sampling_period:15
make_plots:1
m1:0.98976
m2:-0.0073571
==========
Detector params:
Sampling period (ms): 15.000000
N dwell: 200.000000
Filament current (A): 1.540000
Filament emission (mA): 1.899468
Solenoid current (A): NaN
Solenoid shim current (A): NaN
Lens params:
0  685
1  300
2  125
3      -0.002
4       -0.01
5       0.012
6         0.8
7         2.1
8         2.8
9  3000
10  1450
11         0.85
12   0
==========
Data:
z(nm),I(A)
200000,4.1583e-11,
100000,4.2771e-11,
0,4.2637e-11,
-100000,4.231e-11,
-200000,4.258e-11,
-300000,4.3747e-11,
-400000,4.4519e-11,
-500000,4.4177e-11,
-600000,4.4925e-11,
-700000,4.4746e-11,
-800000,4.596e-11,
-900000,4.6821e-11,
-1000000,4.7575e-11,
-1100000,4.8748e-11,
-1200000,4.6958e-11,
-1300000,4.7769e-11,
-1400000,4.8125e-11,
-1500000,4.9374e-11,
-1600000,4.9864e-11,
-1700000,4.9873e-11,
-1800000,5.0284e-11,
-1900000,5.0258e-11,
-2000000,5.016e-11,
-2100000,4.9311e-11,
-2200000,4.766e-11,
-2300000,4.9774e-11,
-2400000,4.7856e-11,
-2500000,4.8041e-11,
-2600000,4.7707e-11,
-2700000,4.643e-11,
-2800000,4.6657e-11,
-2900000,4.5407e-11,
-3000000,4.495e-11,
-3100000,4.4906e-11,
-3200000,4.3852e-11,
-3300000,4.2047e-11,
-3400000,4.1295e-11,
-3500000,4.0919e-11,
-3600000,4.124e-11,
-3700000,4.0665e-11,
-3800000,3.9931e-11,
-3900000,3.9471e-11,
-4000000,3.8536e-11,
-4100000,3.7615e-11,
-4200000,3.6061e-11,
-4300000,3.6371e-11,
-4400000,3.5084e-11,
-4500000,3.4401e-11,
-4600000,3.4217e-11,
-4700000,3.3635e-11,
-4800000,3.3287e-11,
-4900000,3.2344e-11,
-5000000,3.266e-11,
-4950000,3.2194e-11,
-4850000,3.2315e-11,
-4750000,3.3132e-11,
-4650000,3.3409e-11,
-4550000,3.3864e-11,
-4450000,3.5109e-11,
-4350000,3.5528e-11,
-4250000,3.5835e-11,
-4150000,3.6736e-11,
-4050000,3.7835e-11,
-3950000,3.8753e-11,
-3850000,3.8643e-11,
-3750000,3.8801e-11,
-3650000,3.9722e-11,
-3550000,4.1011e-11,
-3450000,4.1435e-11,
-3350000,4.2147e-11,
-3250000,4.2558e-11,
-3150000,4.4071e-11,
-3050000,4.4843e-11,
-2950000,4.4521e-11,
-2850000,4.6051e-11,
-2750000,4.651e-11,
-2650000,4.7107e-11,
-2550000,4.6794e-11,
-2450000,4.8004e-11,
-2350000,4.8629e-11,
-2250000,4.9396e-11,
-2150000,4.9352e-11,
-2050000,5.0099e-11,
-1950000,4.9685e-11,
-1850000,4.9143e-11,
-1750000,4.8921e-11,
-1650000,4.9085e-11,
-1550000,4.9142e-11,
-1450000,4.8937e-11,
-1350000,4.8332e-11,
-1250000,4.8679e-11,
-1150000,4.7611e-11,
-1050000,4.7135e-11,
-950000,4.64e-11,
-850000,4.6434e-11,
-750000,4.6316e-11,
-650000,4.4539e-11,
-550000,4.4488e-11,
-450000,4.4508e-11,
-350000,4.2188e-11,
-250000,4.3218e-11,
-150000,4.2564e-11,
-50000,4.2325e-11,
50000,4.0889e-11,
150000,4.2386e-11,
