General parameters:
Start time: 2023              8             18             14              6      32.660647
Finish time: 2023              8             18             14             12      29.436594
Dwell time (ms): 3000.000000
Source chamber pressure: 2.00e+3
Differential chamber pressure: 7.88e-07
Sample chamber pressure: 3.84e-08
Example position (nm): -3388184.692645,312774.852376,-1000000.000000
Rotation angle (udeg): 94999915.000000
==========
Instrument status: 
0:Data Directory:/icon/data/2023_08_MoS2_5um_hbn_sub/
1:Sample:MoS2
2:Comments:no
3:PinholePlate:#C13
4:z_Zero:4200
5:Operator:djw77/nav31/kw570
==========
zscan inputs: 
z_sep:50000
z_range:200000 -5000000
data_path:/icon/data/2023_08_MoS2_5um_hbn_sub/
example_pos:-3388184.6926      312774.85238          -1000000
N_dwell:200
sampling_period:15
make_plots:1
m1:0.98976
m2:-0.0073571
==========
Detector params:
Sampling period (ms): 15.000000
N dwell: 200.000000
Filament current (A): 1.540000
Filament emission (mA): 1.668960
Solenoid current (A): NaN
Solenoid shim current (A): NaN
Lens params:
0  685
1  300
2  125
3      -0.002
4       -0.01
5       0.012
6         0.8
7         2.1
8         2.8
9  3000
10  1450
11         0.85
12   0
==========
Data:
z(nm),I(A)
200000,4.6526e-11,
100000,4.7873e-11,
0,4.8329e-11,
-100000,4.905e-11,
-200000,4.6824e-11,
-300000,4.612e-11,
-400000,4.6619e-11,
-500000,4.8956e-11,
-600000,5.2475e-11,
-700000,6.1904e-11,
-800000,7.5515e-11,
-900000,8.7493e-11,
-1000000,9.4906e-11,
-1100000,8.4882e-11,
-1200000,7.0456e-11,
-1300000,6.0359e-11,
-1400000,5.3759e-11,
-1500000,4.9602e-11,
-1600000,4.7992e-11,
-1700000,4.7651e-11,
-1800000,4.674e-11,
-1900000,4.5443e-11,
-2000000,4.5765e-11,
-2100000,4.5812e-11,
-2200000,4.4772e-11,
-2300000,4.8731e-11,
-2400000,5.3581e-11,
-2500000,5.5941e-11,
-2600000,5.6569e-11,
-2700000,5.3559e-11,
-2800000,4.7107e-11,
-2900000,4.1158e-11,
-3000000,3.9062e-11,
-3100000,3.6532e-11,
-3200000,3.5979e-11,
-3300000,3.5338e-11,
-3400000,3.4948e-11,
-3500000,3.3379e-11,
-3600000,3.3738e-11,
-3700000,3.1801e-11,
-3800000,3.1724e-11,
-3900000,3.0381e-11,
-4000000,2.9275e-11,
-4100000,2.8973e-11,
-4200000,2.8827e-11,
-4300000,2.8667e-11,
-4400000,2.892e-11,
-4500000,2.8629e-11,
-4600000,2.7902e-11,
-4700000,2.6682e-11,
-4800000,2.6508e-11,
-4900000,2.5842e-11,
-5000000,2.4982e-11,
-4950000,2.5326e-11,
-4850000,2.596e-11,
-4750000,2.6934e-11,
-4650000,2.7568e-11,
-4550000,2.8339e-11,
-4450000,2.8407e-11,
-4350000,2.8595e-11,
-4250000,2.9205e-11,
-4150000,2.9358e-11,
-4050000,2.9859e-11,
-3950000,2.9465e-11,
-3850000,3.0241e-11,
-3750000,3.1856e-11,
-3650000,3.2782e-11,
-3550000,3.3149e-11,
-3450000,3.4037e-11,
-3350000,3.526e-11,
-3250000,3.5473e-11,
-3150000,3.5711e-11,
-3050000,3.7499e-11,
-2950000,3.9342e-11,
-2850000,4.3814e-11,
-2750000,5.0234e-11,
-2650000,5.4894e-11,
-2550000,5.7764e-11,
-2450000,5.7887e-11,
-2350000,5.4249e-11,
-2250000,4.767e-11,
-2150000,4.5556e-11,
-2050000,4.4528e-11,
-1950000,4.4915e-11,
-1850000,4.4966e-11,
-1750000,4.6151e-11,
-1650000,4.7055e-11,
-1550000,4.8878e-11,
-1450000,5.0632e-11,
-1350000,5.5984e-11,
-1250000,6.4672e-11,
-1150000,7.7148e-11,
-1050000,9.3698e-11,
-950000,9.6304e-11,
-850000,8.8644e-11,
-750000,7.0782e-11,
-650000,5.935e-11,
-550000,5.1116e-11,
-450000,4.7423e-11,
-350000,4.6334e-11,
-250000,4.6461e-11,
-150000,4.6839e-11,
-50000,4.8227e-11,
50000,4.828e-11,
150000,4.7386e-11,
