General parameters:
Start time: 2023              9             21             23             27       17.40388
Finish time: 2023              9             21             23             36      21.350749
Dwell time (ms): 3750.000000
Source chamber pressure: Error-S
Differential chamber pressure: 7.85e-07
Sample chamber pressure: 3.66e-08
Example position (nm): -4605000.000000,253000.000000,-2700000.000000
Rotation angle (udeg): 125000035.000000
==========
Instrument status: 
0:Data Directory:/icon/data/2023_08_MoS2_5um_hbn_sub/
1:Sample:MoS2
2:Comments:no
3:PinholePlate:#C13
4:z_Zero:4200
5:Operator:djw77/nav31/kw570
==========
zscan inputs: 
z_sep:50000
z_range:500000 -6000000
data_path:/icon/data/2023_08_MoS2_5um_hbn_sub/
example_pos:-4605000   253000 -2700000
N_dwell:250
sampling_period:15
make_plots:1
m1:0.98976
m2:-0.0073571
==========
Detector params:
Sampling period (ms): 15.000000
N dwell: 250.000000
Filament current (A): 1.540000
Filament emission (mA): 2.966850
Solenoid current (A): NaN
Solenoid shim current (A): NaN
Lens params:
0  685
1  300
2  125
3      -0.002
4       -0.01
5       0.012
6         0.8
7         2.1
8         2.8
9  3000
10  1450
11         0.85
12   0
==========
Data:
z(nm),I(A)
500000,2.5249e-10,
400000,2.6575e-10,
300000,2.7358e-10,
200000,2.74e-10,
100000,2.7274e-10,
0,2.6628e-10,
-100000,2.5836e-10,
-200000,2.5368e-10,
-300000,2.5666e-10,
-400000,2.5941e-10,
-500000,2.759e-10,
-600000,3.2789e-10,
-700000,4.282e-10,
-800000,5.58e-10,
-900000,5.2898e-10,
-1000000,3.8853e-10,
-1100000,2.9093e-10,
-1200000,2.4634e-10,
-1300000,2.438e-10,
-1400000,2.5037e-10,
-1500000,3.0461e-10,
-1600000,3.9291e-10,
-1700000,4.5001e-10,
-1800000,4.3513e-10,
-1900000,3.7107e-10,
-2000000,2.8115e-10,
-2100000,2.3733e-10,
-2200000,2.3706e-10,
-2300000,2.7498e-10,
-2400000,3.7505e-10,
-2500000,5.1389e-10,
-2600000,6.1549e-10,
-2700000,6.3292e-10,
-2800000,5.7138e-10,
-2900000,4.6911e-10,
-3000000,3.3105e-10,
-3100000,2.4887e-10,
-3200000,2.2003e-10,
-3300000,2.1893e-10,
-3400000,2.3545e-10,
-3500000,2.7205e-10,
-3600000,3.1713e-10,
-3700000,3.5106e-10,
-3800000,3.5426e-10,
-3900000,3.2842e-10,
-4000000,2.8312e-10,
-4100000,2.3757e-10,
-4200000,1.9436e-10,
-4300000,1.6732e-10,
-4400000,1.5123e-10,
-4500000,1.4346e-10,
-4600000,1.385e-10,
-4700000,1.3715e-10,
-4800000,1.3697e-10,
-4900000,1.3752e-10,
-5000000,1.3983e-10,
-5100000,1.4232e-10,
-5200000,1.4416e-10,
-5300000,1.4272e-10,
-5400000,1.4311e-10,
-5500000,1.3369e-10,
-5600000,1.2382e-10,
-5700000,1.2422e-10,
-5800000,1.2222e-10,
-5900000,1.1673e-10,
-6000000,1.1301e-10,
-5950000,1.1478e-10,
-5850000,1.1732e-10,
-5750000,1.2249e-10,
-5650000,1.2388e-10,
-5550000,1.2478e-10,
-5450000,1.4079e-10,
-5350000,1.4441e-10,
-5250000,1.4352e-10,
-5150000,1.4398e-10,
-5050000,1.4339e-10,
-4950000,1.4116e-10,
-4850000,1.3857e-10,
-4750000,1.3668e-10,
-4650000,1.3823e-10,
-4550000,1.3989e-10,
-4450000,1.4398e-10,
-4350000,1.5484e-10,
-4250000,1.7523e-10,
-4150000,2.1057e-10,
-4050000,2.5603e-10,
-3950000,3.0394e-10,
-3850000,3.3537e-10,
-3750000,3.5466e-10,
-3650000,3.3771e-10,
-3550000,2.9814e-10,
-3450000,2.5787e-10,
-3350000,2.276e-10,
-3250000,2.1612e-10,
-3150000,2.2854e-10,
-3050000,2.791e-10,
-2950000,3.8255e-10,
-2850000,5.3312e-10,
-2750000,6.2718e-10,
-2650000,6.4185e-10,
-2550000,5.8731e-10,
-2450000,4.5723e-10,
-2350000,3.2616e-10,
-2250000,2.5601e-10,
-2150000,2.3783e-10,
-2050000,2.537e-10,
-1950000,3.1629e-10,
-1850000,3.938e-10,
-1750000,4.3483e-10,
-1650000,4.2282e-10,
-1550000,3.5043e-10,
-1450000,2.8495e-10,
-1350000,2.5049e-10,
-1250000,2.4545e-10,
-1150000,2.6613e-10,
-1050000,3.281e-10,
-950000,4.5275e-10,
-850000,5.6006e-10,
-750000,5.0211e-10,
-650000,3.732e-10,
-550000,3.0623e-10,
-450000,2.7495e-10,
-350000,2.6292e-10,
-250000,2.6656e-10,
-150000,2.6359e-10,
-50000,2.7402e-10,
50000,2.7828e-10,
150000,2.7554e-10,
250000,2.7497e-10,
350000,2.7035e-10,
450000,2.623e-10,
