General parameters:
Start time: 2023              8             19             16             40       5.059618
Finish time: 2023              8             19             16             46       0.177275
Dwell time (ms): 3000.000000
Source chamber pressure: 2.00e+3
Differential chamber pressure: 7.98e-07
Sample chamber pressure: 3.79e-08
Example position (nm): -3073677.136386,265986.202598,-1000000.000000
Rotation angle (udeg): 115000130.000000
==========
Instrument status: 
0:Data Directory:/icon/data/2023_08_MoS2_5um_hbn_sub/
1:Sample:MoS2
2:Comments:no
3:PinholePlate:#C13
4:z_Zero:4200
5:Operator:djw77/nav31/kw570
==========
zscan inputs: 
z_sep:50000
z_range:200000 -5000000
data_path:/icon/data/2023_08_MoS2_5um_hbn_sub/
example_pos:-3073677.1364       265986.2026          -1000000
N_dwell:200
sampling_period:15
make_plots:0
m1:0.98976
m2:-0.0073571
==========
Detector params:
Sampling period (ms): 15.000000
N dwell: 200.000000
Filament current (A): 1.540000
Filament emission (mA): 1.688796
Solenoid current (A): NaN
Solenoid shim current (A): NaN
Lens params:
0  685
1  300
2  125
3      -0.002
4       -0.01
5       0.012
6         0.8
7         2.1
8         2.8
9  3000
10  1450
11         0.85
12   0
==========
Data:
z(nm),I(A)
200000,4.5005e-11,
100000,4.5688e-11,
0,4.5944e-11,
-100000,4.5946e-11,
-200000,4.5604e-11,
-300000,4.6995e-11,
-400000,4.7099e-11,
-500000,4.987e-11,
-600000,5.3474e-11,
-700000,5.3538e-11,
-800000,4.9731e-11,
-900000,4.7313e-11,
-1000000,5.212e-11,
-1100000,5.1613e-11,
-1200000,5.1286e-11,
-1300000,5.2039e-11,
-1400000,4.9682e-11,
-1500000,4.9433e-11,
-1600000,5.6774e-11,
-1700000,6.2917e-11,
-1800000,6.4138e-11,
-1900000,6.071e-11,
-2000000,5.2243e-11,
-2100000,4.8071e-11,
-2200000,4.6252e-11,
-2300000,4.6034e-11,
-2400000,4.52e-11,
-2500000,4.4801e-11,
-2600000,4.3972e-11,
-2700000,4.3928e-11,
-2800000,4.3723e-11,
-2900000,4.258e-11,
-3000000,4.1505e-11,
-3100000,4.1155e-11,
-3200000,4.0505e-11,
-3300000,3.9992e-11,
-3400000,3.8208e-11,
-3500000,3.8935e-11,
-3600000,3.7755e-11,
-3700000,3.7835e-11,
-3800000,3.7369e-11,
-3900000,3.5115e-11,
-4000000,3.6249e-11,
-4100000,3.5471e-11,
-4200000,3.3902e-11,
-4300000,3.3093e-11,
-4400000,3.309e-11,
-4500000,3.2029e-11,
-4600000,3.1125e-11,
-4700000,3.1258e-11,
-4800000,3.0636e-11,
-4900000,2.9458e-11,
-5000000,2.8788e-11,
-4950000,2.885e-11,
-4850000,2.9595e-11,
-4750000,2.9851e-11,
-4650000,3.0958e-11,
-4550000,3.1802e-11,
-4450000,3.1521e-11,
-4350000,3.2599e-11,
-4250000,3.3004e-11,
-4150000,3.3893e-11,
-4050000,3.4191e-11,
-3950000,3.4888e-11,
-3850000,3.619e-11,
-3750000,3.6773e-11,
-3650000,3.6773e-11,
-3550000,3.7535e-11,
-3450000,3.8794e-11,
-3350000,3.9836e-11,
-3250000,3.9804e-11,
-3150000,4.0784e-11,
-3050000,4.2384e-11,
-2950000,4.3386e-11,
-2850000,4.3243e-11,
-2750000,4.4736e-11,
-2650000,4.4674e-11,
-2550000,4.5991e-11,
-2450000,4.6531e-11,
-2350000,4.5042e-11,
-2250000,4.6663e-11,
-2150000,4.7065e-11,
-2050000,4.8951e-11,
-1950000,5.7793e-11,
-1850000,6.1567e-11,
-1750000,6.2173e-11,
-1650000,5.842e-11,
-1550000,5.1675e-11,
-1450000,4.8717e-11,
-1350000,4.8286e-11,
-1250000,4.9605e-11,
-1150000,4.9444e-11,
-1050000,5.0001e-11,
-950000,4.8113e-11,
-850000,4.7753e-11,
-750000,5.2577e-11,
-650000,5.469e-11,
-550000,5.2047e-11,
-450000,4.8835e-11,
-350000,4.6803e-11,
-250000,4.5544e-11,
-150000,4.6144e-11,
-50000,4.5978e-11,
50000,4.583e-11,
150000,4.5045e-11,
