General parameters:
Start time: 2023              8             21             21             51      33.835406
Finish time: 2023              8             21             21             57      30.002024
Dwell time (ms): 3000.000000
Source chamber pressure: 2.00e+3
Differential chamber pressure: 7.98e-07
Sample chamber pressure: 3.83e-08
Example position (nm): -3540779.807391,301531.645148,-1000000.000000
Rotation angle (udeg): 85000115.000000
==========
Instrument status: 
0:Data Directory:/icon/data/2023_08_MoS2_5um_hbn_sub/
1:Sample:MoS2
2:Comments:no
3:PinholePlate:#C13
4:z_Zero:4200
5:Operator:djw77/nav31/kw570
==========
zscan inputs: 
z_sep:50000
z_range:200000 -5000000
data_path:/icon/data/2023_08_MoS2_5um_hbn_sub/
example_pos:-3540779.8074      301531.64515          -1000000
N_dwell:200
sampling_period:15
make_plots:0
m1:0.98976
m2:-0.0073571
==========
Detector params:
Sampling period (ms): 15.000000
N dwell: 200.000000
Filament current (A): 1.540000
Filament emission (mA): 1.735650
Solenoid current (A): NaN
Solenoid shim current (A): NaN
Lens params:
0  685
1  300
2  125
3      -0.002
4       -0.01
5       0.012
6         0.8
7         2.1
8         2.8
9  3000
10  1450
11         0.85
12   0
==========
Data:
z(nm),I(A)
200000,4.748e-11,
100000,4.6432e-11,
0,4.7505e-11,
-100000,5.2425e-11,
-200000,5.5876e-11,
-300000,5.7966e-11,
-400000,5.9721e-11,
-500000,6.0687e-11,
-600000,6.2533e-11,
-700000,6.9071e-11,
-800000,8.7471e-11,
-900000,1.1328e-10,
-1000000,1.1734e-10,
-1100000,1.0191e-10,
-1200000,7.8856e-11,
-1300000,6.9547e-11,
-1400000,6.9092e-11,
-1500000,6.7008e-11,
-1600000,6.6328e-11,
-1700000,6.5514e-11,
-1800000,6.2795e-11,
-1900000,6.3418e-11,
-2000000,6.0061e-11,
-2100000,5.9194e-11,
-2200000,5.872e-11,
-2300000,5.9894e-11,
-2400000,5.9874e-11,
-2500000,6.057e-11,
-2600000,5.978e-11,
-2700000,5.6353e-11,
-2800000,5.1751e-11,
-2900000,4.9264e-11,
-3000000,4.8212e-11,
-3100000,4.7568e-11,
-3200000,4.7015e-11,
-3300000,4.9246e-11,
-3400000,5.1222e-11,
-3500000,5.0458e-11,
-3600000,4.9911e-11,
-3700000,4.7602e-11,
-3800000,4.3752e-11,
-3900000,3.9798e-11,
-4000000,3.7462e-11,
-4100000,3.4784e-11,
-4200000,3.1962e-11,
-4300000,3.2363e-11,
-4400000,3.045e-11,
-4500000,3.1041e-11,
-4600000,2.9953e-11,
-4700000,2.9346e-11,
-4800000,2.8916e-11,
-4900000,2.797e-11,
-5000000,2.7177e-11,
-4950000,2.8158e-11,
-4850000,2.8704e-11,
-4750000,2.985e-11,
-4650000,2.9893e-11,
-4550000,3.0503e-11,
-4450000,3.089e-11,
-4350000,3.1883e-11,
-4250000,3.1743e-11,
-4150000,3.3399e-11,
-4050000,3.601e-11,
-3950000,3.8214e-11,
-3850000,4.2195e-11,
-3750000,4.5655e-11,
-3650000,4.7873e-11,
-3550000,5.0341e-11,
-3450000,5.0522e-11,
-3350000,5.0329e-11,
-3250000,4.8238e-11,
-3150000,4.7221e-11,
-3050000,4.7578e-11,
-2950000,4.9707e-11,
-2850000,5.1501e-11,
-2750000,5.3333e-11,
-2650000,5.7234e-11,
-2550000,5.9158e-11,
-2450000,5.9716e-11,
-2350000,5.9315e-11,
-2250000,5.8017e-11,
-2150000,5.7061e-11,
-2050000,6.0212e-11,
-1950000,6.1102e-11,
-1850000,6.1867e-11,
-1750000,6.4192e-11,
-1650000,6.5765e-11,
-1550000,6.6222e-11,
-1450000,6.7086e-11,
-1350000,7.0659e-11,
-1250000,7.1961e-11,
-1150000,9.0517e-11,
-1050000,1.1557e-10,
-950000,1.2279e-10,
-850000,1.0565e-10,
-750000,7.8618e-11,
-650000,6.5657e-11,
-550000,6.3059e-11,
-450000,6.2297e-11,
-350000,6.1362e-11,
-250000,5.9867e-11,
-150000,5.8441e-11,
-50000,5.3343e-11,
50000,5.0962e-11,
150000,5.296e-11,
