General parameters:
Start time: 2023              8             18             15             41      40.880566
Finish time: 2023              8             18             15             47      38.292598
Dwell time (ms): 3000.000000
Source chamber pressure: 2.00e+3
Differential chamber pressure: 7.89e-07
Sample chamber pressure: 3.94e-08
Example position (nm): -3990223.353017,-19211.149026,-1000000.000000
Rotation angle (udeg): 50000025.000000
==========
Instrument status: 
0:Data Directory:/icon/data/2023_08_MoS2_5um_hbn_sub/
1:Sample:MoS2
2:Comments:no
3:PinholePlate:#C13
4:z_Zero:4200
5:Operator:djw77/nav31/kw570
==========
zscan inputs: 
z_sep:50000
z_range:200000 -5000000
data_path:/icon/data/2023_08_MoS2_5um_hbn_sub/
example_pos:-3990223.353     -19211.149026          -1000000
N_dwell:200
sampling_period:15
make_plots:1
m1:0.98976
m2:-0.0073571
==========
Detector params:
Sampling period (ms): 15.000000
N dwell: 200.000000
Filament current (A): 1.540000
Filament emission (mA): 1.655280
Solenoid current (A): NaN
Solenoid shim current (A): NaN
Lens params:
0  685
1  300
2  125
3      -0.002
4       -0.01
5       0.012
6         0.8
7         2.1
8         2.8
9  3000
10  1450
11         0.85
12   0
==========
Data:
z(nm),I(A)
200000,4.315e-11,
100000,4.284e-11,
0,4.3322e-11,
-100000,4.6877e-11,
-200000,4.6342e-11,
-300000,4.6967e-11,
-400000,5.0976e-11,
-500000,5.3424e-11,
-600000,5.2329e-11,
-700000,5.3102e-11,
-800000,6.2203e-11,
-900000,6.9675e-11,
-1000000,6.5044e-11,
-1100000,6.3276e-11,
-1200000,6.2358e-11,
-1300000,5.847e-11,
-1400000,6.5123e-11,
-1500000,6.3967e-11,
-1600000,6.0825e-11,
-1700000,6.1261e-11,
-1800000,5.8938e-11,
-1900000,5.8758e-11,
-2000000,5.6321e-11,
-2100000,5.5838e-11,
-2200000,5.3849e-11,
-2300000,5.3018e-11,
-2400000,5.1058e-11,
-2500000,4.933e-11,
-2600000,5.0718e-11,
-2700000,4.8732e-11,
-2800000,4.7385e-11,
-2900000,4.5613e-11,
-3000000,4.4253e-11,
-3100000,4.4021e-11,
-3200000,4.2311e-11,
-3300000,4.258e-11,
-3400000,4.0767e-11,
-3500000,3.8936e-11,
-3600000,3.6742e-11,
-3700000,3.4208e-11,
-3800000,3.34e-11,
-3900000,3.3387e-11,
-4000000,3.2283e-11,
-4100000,3.1095e-11,
-4200000,3.0085e-11,
-4300000,2.9257e-11,
-4400000,2.8405e-11,
-4500000,2.6492e-11,
-4600000,2.6258e-11,
-4700000,2.5584e-11,
-4800000,2.536e-11,
-4900000,2.4798e-11,
-5000000,2.3654e-11,
-4950000,2.4124e-11,
-4850000,2.4463e-11,
-4750000,2.4791e-11,
-4650000,2.6558e-11,
-4550000,2.754e-11,
-4450000,2.721e-11,
-4350000,2.7983e-11,
-4250000,2.9049e-11,
-4150000,2.9905e-11,
-4050000,3.147e-11,
-3950000,3.2927e-11,
-3850000,3.3906e-11,
-3750000,3.4873e-11,
-3650000,3.6162e-11,
-3550000,3.7508e-11,
-3450000,3.9421e-11,
-3350000,4.2253e-11,
-3250000,4.327e-11,
-3150000,4.3531e-11,
-3050000,4.3206e-11,
-2950000,4.519e-11,
-2850000,4.621e-11,
-2750000,4.7537e-11,
-2650000,5.0569e-11,
-2550000,4.9529e-11,
-2450000,5.0584e-11,
-2350000,5.3503e-11,
-2250000,5.5102e-11,
-2150000,5.6765e-11,
-2050000,5.7147e-11,
-1950000,5.8486e-11,
-1850000,5.977e-11,
-1750000,6.0538e-11,
-1650000,6.2314e-11,
-1550000,6.5123e-11,
-1450000,6.7172e-11,
-1350000,6.6825e-11,
-1250000,6.1411e-11,
-1150000,6.4873e-11,
-1050000,6.5152e-11,
-950000,7.0016e-11,
-850000,6.6377e-11,
-750000,5.9118e-11,
-650000,5.1887e-11,
-550000,5.2468e-11,
-450000,5.2056e-11,
-350000,5.0458e-11,
-250000,4.7287e-11,
-150000,4.7016e-11,
-50000,4.5461e-11,
50000,4.5111e-11,
150000,4.4287e-11,
