General parameters:
Start time: 2023              8             28              1             26      58.504857
Finish time: 2023              8             28              1             32      54.970698
Dwell time (ms): 3000.000000
Source chamber pressure: 2.00e+3
Differential chamber pressure: 6.36e-07
Sample chamber pressure: 3.58e-08
Example position (nm): -4172542.599616,-222028.222702,-1000000.000000
Rotation angle (udeg): 34999830.000000
==========
Instrument status: 
0:Data Directory:/icon/data/2023_08_MoS2_5um_hbn_sub/
1:Sample:MoS2
2:Comments:no
3:PinholePlate:#C13
4:z_Zero:4200
5:Operator:djw77/nav31/kw570
==========
zscan inputs: 
z_sep:50000
z_range:200000 -5000000
data_path:/icon/data/2023_08_MoS2_5um_hbn_sub/
example_pos:-4172542.5996      -222028.2227          -1000000
N_dwell:200
sampling_period:15
make_plots:1
m1:0.98976
m2:-0.0073571
==========
Detector params:
Sampling period (ms): 15.000000
N dwell: 200.000000
Filament current (A): 1.540000
Filament emission (mA): 1.900152
Solenoid current (A): NaN
Solenoid shim current (A): NaN
Lens params:
0  685
1  300
2  125
3      -0.002
4       -0.01
5       0.012
6         0.8
7         2.1
8         2.8
9  3000
10  1450
11         0.85
12   0
==========
Data:
z(nm),I(A)
200000,4.213e-11,
100000,4.1632e-11,
0,4.2361e-11,
-100000,4.1784e-11,
-200000,4.2564e-11,
-300000,4.3347e-11,
-400000,4.3028e-11,
-500000,4.4998e-11,
-600000,4.448e-11,
-700000,4.5415e-11,
-800000,4.5908e-11,
-900000,4.642e-11,
-1000000,4.6967e-11,
-1100000,4.8113e-11,
-1200000,4.8202e-11,
-1300000,4.8443e-11,
-1400000,4.8725e-11,
-1500000,4.961e-11,
-1600000,4.9997e-11,
-1700000,5.0298e-11,
-1800000,4.9515e-11,
-1900000,4.9211e-11,
-2000000,4.8831e-11,
-2100000,4.8849e-11,
-2200000,4.9219e-11,
-2300000,4.867e-11,
-2400000,4.8102e-11,
-2500000,4.7404e-11,
-2600000,4.6738e-11,
-2700000,4.6328e-11,
-2800000,4.6727e-11,
-2900000,4.5535e-11,
-3000000,4.4629e-11,
-3100000,4.3425e-11,
-3200000,4.3167e-11,
-3300000,4.3393e-11,
-3400000,4.2268e-11,
-3500000,4.14e-11,
-3600000,4.0008e-11,
-3700000,3.9792e-11,
-3800000,3.8571e-11,
-3900000,3.9184e-11,
-4000000,3.7925e-11,
-4100000,3.7418e-11,
-4200000,3.555e-11,
-4300000,3.5664e-11,
-4400000,3.5801e-11,
-4500000,3.4692e-11,
-4600000,3.4276e-11,
-4700000,3.2591e-11,
-4800000,3.3104e-11,
-4900000,3.3826e-11,
-5000000,3.1923e-11,
-4950000,3.0842e-11,
-4850000,3.3168e-11,
-4750000,3.359e-11,
-4650000,3.4172e-11,
-4550000,3.4799e-11,
-4450000,3.4608e-11,
-4350000,3.5815e-11,
-4250000,3.5488e-11,
-4150000,3.7194e-11,
-4050000,3.6807e-11,
-3950000,3.7883e-11,
-3850000,3.9744e-11,
-3750000,3.9637e-11,
-3650000,3.9881e-11,
-3550000,4.0046e-11,
-3450000,4.2144e-11,
-3350000,4.2168e-11,
-3250000,4.3461e-11,
-3150000,4.3326e-11,
-3050000,4.4875e-11,
-2950000,4.4876e-11,
-2850000,4.5838e-11,
-2750000,4.5671e-11,
-2650000,4.6294e-11,
-2550000,4.7882e-11,
-2450000,4.7502e-11,
-2350000,4.8347e-11,
-2250000,4.9411e-11,
-2150000,4.8397e-11,
-2050000,4.8665e-11,
-1950000,4.8761e-11,
-1850000,4.9194e-11,
-1750000,4.9615e-11,
-1650000,4.9334e-11,
-1550000,4.8697e-11,
-1450000,4.9792e-11,
-1350000,4.9413e-11,
-1250000,4.7661e-11,
-1150000,4.6926e-11,
-1050000,4.7576e-11,
-950000,4.719e-11,
-850000,4.6994e-11,
-750000,4.6062e-11,
-650000,4.5199e-11,
-550000,4.3771e-11,
-450000,4.4273e-11,
-350000,4.3285e-11,
-250000,4.2582e-11,
-150000,4.1597e-11,
-50000,4.1797e-11,
50000,4.2088e-11,
150000,4.2403e-11,
