General parameters:
Start time: 2023              8             29              4             24       9.380823
Finish time: 2023              8             29              4             31       12.71672
Dwell time (ms): 3000.000000
Source chamber pressure: 2.00e+3
Differential chamber pressure: 6.04e-07
Sample chamber pressure: 3.62e-08
Example position (nm): -3387112.632529,326832.831484,-1000000.000000
Rotation angle (udeg): 94999735.000000
==========
Instrument status: 
0:Data Directory:/icon/data/2023_08_MoS2_5um_hbn_sub/
1:Sample:MoS2
2:Comments:no
3:PinholePlate:#C13
4:z_Zero:4200
5:Operator:djw77/nav31/kw570
==========
zscan inputs: 
z_sep:50000
z_range:200000 -6000000
data_path:/icon/data/2023_08_MoS2_5um_hbn_sub/
example_pos:-3387112.6325      326832.83148          -1000000
N_dwell:200
sampling_period:15
make_plots:1
m1:0.98976
m2:-0.0073571
==========
Detector params:
Sampling period (ms): 15.000000
N dwell: 200.000000
Filament current (A): 1.540000
Filament emission (mA): 1.924092
Solenoid current (A): NaN
Solenoid shim current (A): NaN
Lens params:
0  685
1  300
2  125
3      -0.002
4       -0.01
5       0.012
6         0.8
7         2.1
8         2.8
9  3000
10  1450
11         0.85
12   0
==========
Data:
z(nm),I(A)
200000,7.9292e-11,
100000,8.3801e-11,
0,8.3639e-11,
-100000,7.9592e-11,
-200000,7.7798e-11,
-300000,7.3123e-11,
-400000,7.3474e-11,
-500000,7.8055e-11,
-600000,8.9492e-11,
-700000,1.1693e-10,
-800000,1.5833e-10,
-900000,2.0263e-10,
-1000000,2.1099e-10,
-1100000,1.8033e-10,
-1200000,1.374e-10,
-1300000,1.0776e-10,
-1400000,9.0679e-11,
-1500000,7.9765e-11,
-1600000,7.7268e-11,
-1700000,7.4497e-11,
-1800000,7.1291e-11,
-1900000,6.8299e-11,
-2000000,6.6804e-11,
-2100000,6.8258e-11,
-2200000,7.2593e-11,
-2300000,8.0933e-11,
-2400000,9.2461e-11,
-2500000,1.01e-10,
-2600000,1.0282e-10,
-2700000,9.3107e-11,
-2800000,8.0761e-11,
-2900000,6.7784e-11,
-3000000,5.8363e-11,
-3100000,5.535e-11,
-3200000,5.4124e-11,
-3300000,5.4179e-11,
-3400000,5.2223e-11,
-3500000,5.1325e-11,
-3600000,5.0712e-11,
-3700000,5e-11,
-3800000,4.7996e-11,
-3900000,4.5429e-11,
-4000000,4.5516e-11,
-4100000,4.6882e-11,
-4200000,4.62e-11,
-4300000,4.6367e-11,
-4400000,4.6023e-11,
-4500000,4.6273e-11,
-4600000,4.632e-11,
-4700000,4.531e-11,
-4800000,4.3913e-11,
-4900000,4.1536e-11,
-5000000,3.9538e-11,
-5100000,3.7939e-11,
-5200000,3.6388e-11,
-5300000,3.465e-11,
-5400000,3.4061e-11,
-5500000,3.4614e-11,
-5600000,3.3919e-11,
-5700000,3.386e-11,
-5800000,3.2102e-11,
-5900000,3.1939e-11,
-6000000,3.1606e-11,
-5950000,3.1268e-11,
-5850000,3.1478e-11,
-5750000,3.2683e-11,
-5650000,3.3232e-11,
-5550000,3.297e-11,
-5450000,3.3533e-11,
-5350000,3.3992e-11,
-5250000,3.469e-11,
-5150000,3.7288e-11,
-5050000,3.8246e-11,
-4950000,3.9659e-11,
-4850000,4.2042e-11,
-4750000,4.3971e-11,
-4650000,4.5711e-11,
-4550000,4.6194e-11,
-4450000,4.6792e-11,
-4350000,4.6063e-11,
-4250000,4.6658e-11,
-4150000,4.5787e-11,
-4050000,4.5786e-11,
-3950000,4.6223e-11,
-3850000,4.778e-11,
-3750000,4.8041e-11,
-3650000,4.9352e-11,
-3550000,5.154e-11,
-3450000,5.1616e-11,
-3350000,5.3961e-11,
-3250000,5.3759e-11,
-3150000,5.4037e-11,
-3050000,5.7703e-11,
-2950000,6.33e-11,
-2850000,7.3497e-11,
-2750000,8.9463e-11,
-2650000,1.0081e-10,
-2550000,1.0327e-10,
-2450000,1.0108e-10,
-2350000,8.9287e-11,
-2250000,7.7529e-11,
-2150000,7.0352e-11,
-2050000,6.7422e-11,
-1950000,6.8688e-11,
-1850000,6.9088e-11,
-1750000,7.2383e-11,
-1650000,7.4962e-11,
-1550000,7.7676e-11,
-1450000,8.2824e-11,
-1350000,9.5631e-11,
-1250000,1.1982e-10,
-1150000,1.546e-10,
-1050000,1.9902e-10,
-950000,2.1285e-10,
-850000,1.8903e-10,
-750000,1.4289e-10,
-650000,1.0632e-10,
-550000,8.3876e-11,
-450000,7.5223e-11,
-350000,7.4234e-11,
-250000,7.4996e-11,
-150000,7.8007e-11,
-50000,8.1156e-11,
50000,8.3176e-11,
150000,8.1735e-11,
