General parameters:
Start time: 2023              8             21             14              0      34.649016
Finish time: 2023              8             21             14              6      30.508981
Dwell time (ms): 3000.000000
Source chamber pressure: 2.00e+3
Differential chamber pressure: 7.97e-07
Sample chamber pressure: 3.84e-08
Example position (nm): -3917153.695169,79476.714666,-1000000.000000
Rotation angle (udeg): 54999445.000000
==========
Instrument status: 
0:Data Directory:/icon/data/2023_08_MoS2_5um_hbn_sub/
1:Sample:MoS2
2:Comments:no
3:PinholePlate:#C13
4:z_Zero:4200
5:Operator:djw77/nav31/kw570
==========
zscan inputs: 
z_sep:50000
z_range:200000 -5000000
data_path:/icon/data/2023_08_MoS2_5um_hbn_sub/
example_pos:-3917153.6952      79476.714666          -1000000
N_dwell:200
sampling_period:15
make_plots:0
m1:0.98976
m2:-0.0073571
==========
Detector params:
Sampling period (ms): 15.000000
N dwell: 200.000000
Filament current (A): 1.540000
Filament emission (mA): 1.745226
Solenoid current (A): NaN
Solenoid shim current (A): NaN
Lens params:
0  685
1  300
2  125
3      -0.002
4       -0.01
5       0.012
6         0.8
7         2.1
8         2.8
9  3000
10  1450
11         0.85
12   0
==========
Data:
z(nm),I(A)
200000,4.0033e-11,
100000,4.0288e-11,
0,4.041e-11,
-100000,3.9521e-11,
-200000,4.0415e-11,
-300000,4.0919e-11,
-400000,4.2444e-11,
-500000,4.1381e-11,
-600000,4.2553e-11,
-700000,4.1889e-11,
-800000,4.3752e-11,
-900000,4.4011e-11,
-1000000,4.4915e-11,
-1100000,4.4872e-11,
-1200000,4.5402e-11,
-1300000,4.683e-11,
-1400000,4.687e-11,
-1500000,4.5892e-11,
-1600000,4.6904e-11,
-1700000,4.6964e-11,
-1800000,4.6285e-11,
-1900000,4.6466e-11,
-2000000,4.6767e-11,
-2100000,4.635e-11,
-2200000,4.731e-11,
-2300000,4.6625e-11,
-2400000,4.561e-11,
-2500000,4.4901e-11,
-2600000,4.4868e-11,
-2700000,4.4136e-11,
-2800000,4.3394e-11,
-2900000,4.264e-11,
-3000000,4.2254e-11,
-3100000,4.1048e-11,
-3200000,4.0754e-11,
-3300000,4.0334e-11,
-3400000,4.0014e-11,
-3500000,3.8223e-11,
-3600000,3.8374e-11,
-3700000,3.8781e-11,
-3800000,3.7074e-11,
-3900000,3.5801e-11,
-4000000,3.5159e-11,
-4100000,3.4963e-11,
-4200000,3.3213e-11,
-4300000,3.3541e-11,
-4400000,3.3185e-11,
-4500000,3.2169e-11,
-4600000,3.146e-11,
-4700000,3.149e-11,
-4800000,3.0829e-11,
-4900000,3.0653e-11,
-5000000,2.9743e-11,
-4950000,3.0132e-11,
-4850000,3.117e-11,
-4750000,3.1192e-11,
-4650000,3.1908e-11,
-4550000,3.2353e-11,
-4450000,3.3372e-11,
-4350000,3.3045e-11,
-4250000,3.3736e-11,
-4150000,3.4991e-11,
-4050000,3.6133e-11,
-3950000,3.6322e-11,
-3850000,3.6862e-11,
-3750000,3.7481e-11,
-3650000,3.7733e-11,
-3550000,3.9345e-11,
-3450000,3.9728e-11,
-3350000,4.039e-11,
-3250000,4.124e-11,
-3150000,4.1083e-11,
-3050000,4.235e-11,
-2950000,4.3131e-11,
-2850000,4.3754e-11,
-2750000,4.3821e-11,
-2650000,4.3971e-11,
-2550000,4.5384e-11,
-2450000,4.4968e-11,
-2350000,4.6417e-11,
-2250000,4.6755e-11,
-2150000,4.6768e-11,
-2050000,4.7036e-11,
-1950000,4.6876e-11,
-1850000,4.7525e-11,
-1750000,4.6974e-11,
-1650000,4.6511e-11,
-1550000,4.7168e-11,
-1450000,4.6739e-11,
-1350000,4.5909e-11,
-1250000,4.585e-11,
-1150000,4.582e-11,
-1050000,4.5599e-11,
-950000,4.4675e-11,
-850000,4.4588e-11,
-750000,4.3633e-11,
-650000,4.3467e-11,
-550000,4.2113e-11,
-450000,4.2083e-11,
-350000,4.1682e-11,
-250000,4.1623e-11,
-150000,4.1658e-11,
-50000,4.0672e-11,
50000,4.0884e-11,
150000,4.0445e-11,
