General parameters:
Start time: 2023              8             22              0              9      16.069774
Finish time: 2023              8             22              0             15      16.641046
Dwell time (ms): 3000.000000
Source chamber pressure: 2.00e+3
Differential chamber pressure: 7.98e-07
Sample chamber pressure: 3.79e-08
Example position (nm): -4024593.577751,-21664.235864,-1000000.000000
Rotation angle (udeg): 44999650.000000
==========
Instrument status: 
0:Data Directory:/icon/data/2023_08_MoS2_5um_hbn_sub/
1:Sample:MoS2
2:Comments:no
3:PinholePlate:#C13
4:z_Zero:4200
5:Operator:djw77/nav31/kw570
==========
zscan inputs: 
z_sep:50000
z_range:200000 -5000000
data_path:/icon/data/2023_08_MoS2_5um_hbn_sub/
example_pos:-4024593.5778     -21664.235864          -1000000
N_dwell:200
sampling_period:15
make_plots:0
m1:0.98976
m2:-0.0073571
==========
Detector params:
Sampling period (ms): 15.000000
N dwell: 200.000000
Filament current (A): 1.540000
Filament emission (mA): 1.749330
Solenoid current (A): NaN
Solenoid shim current (A): NaN
Lens params:
0  685
1  300
2  125
3      -0.002
4       -0.01
5       0.012
6         0.8
7         2.1
8         2.8
9  3000
10  1450
11         0.85
12   0
==========
Data:
z(nm),I(A)
200000,3.9466e-11,
100000,3.8871e-11,
0,3.9122e-11,
-100000,3.9109e-11,
-200000,3.9475e-11,
-300000,3.9819e-11,
-400000,4.0139e-11,
-500000,4.0812e-11,
-600000,4.2403e-11,
-700000,4.188e-11,
-800000,4.4018e-11,
-900000,4.3615e-11,
-1000000,4.3166e-11,
-1100000,4.3578e-11,
-1200000,4.4259e-11,
-1300000,4.4562e-11,
-1400000,4.5706e-11,
-1500000,4.5634e-11,
-1600000,4.6115e-11,
-1700000,4.5552e-11,
-1800000,4.6618e-11,
-1900000,4.5054e-11,
-2000000,4.6136e-11,
-2100000,4.5747e-11,
-2200000,4.4835e-11,
-2300000,4.4742e-11,
-2400000,4.5023e-11,
-2500000,4.3345e-11,
-2600000,4.3593e-11,
-2700000,4.363e-11,
-2800000,4.2255e-11,
-2900000,4.1033e-11,
-3000000,4.0781e-11,
-3100000,4.0835e-11,
-3200000,3.944e-11,
-3300000,3.9891e-11,
-3400000,3.8965e-11,
-3500000,3.8497e-11,
-3600000,3.7485e-11,
-3700000,3.613e-11,
-3800000,3.6616e-11,
-3900000,3.5815e-11,
-4000000,3.475e-11,
-4100000,3.5124e-11,
-4200000,3.4401e-11,
-4300000,3.2797e-11,
-4400000,3.3021e-11,
-4500000,3.248e-11,
-4600000,3.1249e-11,
-4700000,3.1227e-11,
-4800000,3.0833e-11,
-4900000,2.9806e-11,
-5000000,2.9921e-11,
-4950000,2.9015e-11,
-4850000,3.0363e-11,
-4750000,3.1192e-11,
-4650000,3.0847e-11,
-4550000,3.1586e-11,
-4450000,3.1677e-11,
-4350000,3.2069e-11,
-4250000,3.2576e-11,
-4150000,3.4078e-11,
-4050000,3.4965e-11,
-3950000,3.5014e-11,
-3850000,3.5655e-11,
-3750000,3.698e-11,
-3650000,3.7621e-11,
-3550000,3.8485e-11,
-3450000,3.9244e-11,
-3350000,3.9416e-11,
-3250000,3.9404e-11,
-3150000,4.0815e-11,
-3050000,4.1148e-11,
-2950000,4.2175e-11,
-2850000,4.1222e-11,
-2750000,4.2254e-11,
-2650000,4.3752e-11,
-2550000,4.3251e-11,
-2450000,4.387e-11,
-2350000,4.4948e-11,
-2250000,4.5061e-11,
-2150000,4.5245e-11,
-2050000,4.5534e-11,
-1950000,4.5539e-11,
-1850000,4.6083e-11,
-1750000,4.6119e-11,
-1650000,4.7134e-11,
-1550000,4.6164e-11,
-1450000,4.4637e-11,
-1350000,4.5914e-11,
-1250000,4.4651e-11,
-1150000,4.4311e-11,
-1050000,4.5109e-11,
-950000,4.3907e-11,
-850000,4.4163e-11,
-750000,4.2576e-11,
-650000,4.1534e-11,
-550000,4.2104e-11,
-450000,4.0643e-11,
-350000,4.007e-11,
-250000,3.9587e-11,
-150000,3.9494e-11,
-50000,3.9294e-11,
50000,3.9107e-11,
150000,3.8301e-11,
