General parameters:
Start time: 2023              8             15             16             33      36.949897
Finish time: 2023              8             15             16             48      42.489048
Dwell time (ms): 3750.000000
Source chamber pressure: 2.00e+3
Differential chamber pressure: 7.88e-07
Sample chamber pressure: 3.98e-08
Example position (nm): -3481000.000000,282000.000000,-1000000.000000
Rotation angle (udeg): 90000075.000000
==========
Instrument status: 
0:Data Directory:/icon/data/2023_08_MoS2_5um_hbn_sub/
1:Sample:MoS2
2:Comments:no
3:PinholePlate:#C13
4:z_Zero:4200
5:Operator:djw77/nav31/kw570
==========
zscan inputs: 
z_sep:30000
z_range:500000 -6000000
data_path:/icon/data/2023_08_MoS2_5um_hbn_sub/
example_pos:-3481000   282000 -1000000
N_dwell:250
sampling_period:15
make_plots:1
m1:0.98534
m2:-0.0012405
==========
Detector params:
Sampling period (ms): 15.000000
N dwell: 250.000000
Filament current (A): 1.540000
Filament emission (mA): 1.572174
Solenoid current (A): NaN
Solenoid shim current (A): NaN
Lens params:
0  685
1  300
2  125
3      -0.002
4       -0.01
5       0.012
6         0.8
7         2.1
8         2.8
9  3000
10  1450
11         0.85
12   0
==========
Data:
z(nm),I(A)
500000,9.3545e-11,
440000,9.4457e-11,
380000,9.4822e-11,
320000,9.5828e-11,
260000,9.7553e-11,
200000,9.6602e-11,
140000,9.7538e-11,
80000,9.7692e-11,
20000,9.7163e-11,
-40000,9.8294e-11,
-100000,9.8638e-11,
-160000,9.9272e-11,
-220000,9.8275e-11,
-280000,9.7959e-11,
-340000,9.7944e-11,
-400000,9.7846e-11,
-460000,9.8898e-11,
-520000,1.0024e-10,
-580000,1.0183e-10,
-640000,1.013e-10,
-700000,1.0271e-10,
-760000,1.0594e-10,
-820000,1.0591e-10,
-880000,1.079e-10,
-940000,1.0837e-10,
-1000000,1.0873e-10,
-1060000,1.0859e-10,
-1120000,1.102e-10,
-1180000,1.0771e-10,
-1240000,1.0744e-10,
-1300000,1.0594e-10,
-1360000,1.0577e-10,
-1420000,1.0601e-10,
-1480000,1.0543e-10,
-1540000,1.0431e-10,
-1600000,1.0704e-10,
-1660000,1.0513e-10,
-1720000,1.0447e-10,
-1780000,1.0496e-10,
-1840000,1.0245e-10,
-1900000,1.0343e-10,
-1960000,1.0247e-10,
-2020000,1.0172e-10,
-2080000,1.0024e-10,
-2140000,1.0007e-10,
-2200000,1.0019e-10,
-2260000,9.7791e-11,
-2320000,9.6072e-11,
-2380000,9.7092e-11,
-2440000,9.6462e-11,
-2500000,9.6032e-11,
-2560000,9.3804e-11,
-2620000,9.3066e-11,
-2680000,9.1937e-11,
-2740000,9.0818e-11,
-2800000,8.9395e-11,
-2860000,8.9175e-11,
-2920000,8.9293e-11,
-2980000,8.7574e-11,
-3040000,8.8564e-11,
-3100000,8.6835e-11,
-3160000,8.6345e-11,
-3220000,8.5569e-11,
-3280000,8.5658e-11,
-3340000,8.4845e-11,
-3400000,8.4489e-11,
-3460000,8.3366e-11,
-3520000,8.1412e-11,
-3580000,8.1046e-11,
-3640000,7.971e-11,
-3700000,8.0095e-11,
-3760000,7.8441e-11,
-3820000,7.845e-11,
-3880000,7.8262e-11,
-3940000,7.5666e-11,
-4000000,7.6508e-11,
-4060000,7.5856e-11,
-4120000,7.5899e-11,
-4180000,7.4486e-11,
-4240000,7.3859e-11,
-4300000,7.1676e-11,
-4360000,7.2129e-11,
-4420000,7.0551e-11,
-4480000,7.0542e-11,
-4540000,7.0626e-11,
-4600000,6.9125e-11,
-4660000,7.0264e-11,
-4720000,6.9293e-11,
-4780000,6.6971e-11,
-4840000,6.7841e-11,
-4900000,6.6789e-11,
-4960000,6.6416e-11,
-5020000,6.7096e-11,
-5080000,6.4589e-11,
-5140000,6.4416e-11,
-5200000,6.4378e-11,
-5260000,6.3528e-11,
-5320000,6.3875e-11,
-5380000,6.3254e-11,
-5440000,6.319e-11,
-5500000,6.1196e-11,
-5560000,6.1634e-11,
-5620000,6.177e-11,
-5680000,6.1217e-11,
-5740000,6.0203e-11,
-5800000,6.0639e-11,
-5860000,6.0191e-11,
-5920000,5.9664e-11,
-5980000,5.8727e-11,
-5950000,5.9135e-11,
-5890000,5.9764e-11,
-5830000,5.9426e-11,
-5770000,6.074e-11,
-5710000,6.0322e-11,
-5650000,6.0882e-11,
-5590000,6.2047e-11,
-5530000,6.2206e-11,
-5470000,6.1563e-11,
-5410000,6.2105e-11,
-5350000,6.3274e-11,
-5290000,6.4316e-11,
-5230000,6.4619e-11,
-5170000,6.4641e-11,
-5110000,6.4815e-11,
-5050000,6.6268e-11,
-4990000,6.6776e-11,
-4930000,6.6274e-11,
-4870000,6.7926e-11,
-4810000,6.8035e-11,
-4750000,6.9043e-11,
-4690000,6.9138e-11,
-4630000,7.0001e-11,
-4570000,7.0192e-11,
-4510000,7.1251e-11,
-4450000,7.123e-11,
-4390000,7.1946e-11,
-4330000,7.2845e-11,
-4270000,7.3621e-11,
-4210000,7.3326e-11,
-4150000,7.5662e-11,
-4090000,7.5162e-11,
-4030000,7.5496e-11,
-3970000,7.542e-11,
-3910000,7.7119e-11,
-3850000,7.7894e-11,
-3790000,7.8534e-11,
-3730000,7.962e-11,
-3670000,8.0188e-11,
-3610000,8.099e-11,
-3550000,8.0648e-11,
-3490000,8.1205e-11,
-3430000,8.1924e-11,
-3370000,8.3254e-11,
-3310000,8.4144e-11,
-3250000,8.4283e-11,
-3190000,8.5948e-11,
-3130000,8.5842e-11,
-3070000,8.7214e-11,
-3010000,8.827e-11,
-2950000,8.8552e-11,
-2890000,8.9366e-11,
-2830000,8.9538e-11,
-2770000,9.0703e-11,
-2710000,9.1872e-11,
-2650000,9.3e-11,
-2590000,9.3869e-11,
-2530000,9.4602e-11,
-2470000,9.5662e-11,
-2410000,9.6398e-11,
-2350000,9.8193e-11,
-2290000,9.9004e-11,
-2230000,9.9365e-11,
-2170000,1.0026e-10,
-2110000,1.0078e-10,
-2050000,1.0139e-10,
-1990000,1.025e-10,
-1930000,1.0163e-10,
-1870000,1.0406e-10,
-1810000,1.0378e-10,
-1750000,1.0508e-10,
-1690000,1.0359e-10,
-1630000,1.0507e-10,
-1570000,1.0452e-10,
-1510000,1.0526e-10,
-1450000,1.0705e-10,
-1390000,1.0708e-10,
-1330000,1.0666e-10,
-1270000,1.063e-10,
-1210000,1.0784e-10,
-1150000,1.0836e-10,
-1090000,1.08e-10,
-1030000,1.079e-10,
-970000,1.093e-10,
-910000,1.0781e-10,
-850000,1.0772e-10,
-790000,1.0612e-10,
-730000,1.0363e-10,
-670000,1.0242e-10,
-610000,1.0149e-10,
-550000,9.9698e-11,
-490000,9.9202e-11,
-430000,9.894e-11,
-370000,9.6804e-11,
-310000,9.8964e-11,
-250000,9.8848e-11,
-190000,9.8632e-11,
-130000,9.9128e-11,
-70000,9.8913e-11,
-10000,9.8921e-11,
50000,9.8632e-11,
110000,9.8389e-11,
170000,9.743e-11,
230000,9.6832e-11,
290000,9.651e-11,
350000,9.6955e-11,
410000,9.5645e-11,
470000,9.4295e-11,
