General parameters:
Start time: 2023              8             19             14             14      44.108657
Finish time: 2023              8             19             14             20      41.726304
Dwell time (ms): 3000.000000
Source chamber pressure: 2.00e+3
Differential chamber pressure: 7.96e-07
Sample chamber pressure: 3.88e-08
Example position (nm): -3955079.678778,24447.782746,-1000000.000000
Rotation angle (udeg): 54999695.000000
==========
Instrument status: 
0:Data Directory:/icon/data/2023_08_MoS2_5um_hbn_sub/
1:Sample:MoS2
2:Comments:no
3:PinholePlate:#C13
4:z_Zero:4200
5:Operator:djw77/nav31/kw570
==========
zscan inputs: 
z_sep:50000
z_range:200000 -5000000
data_path:/icon/data/2023_08_MoS2_5um_hbn_sub/
example_pos:-3955079.6788      24447.782746          -1000000
N_dwell:200
sampling_period:15
make_plots:0
m1:0.98976
m2:-0.0073571
==========
Detector params:
Sampling period (ms): 15.000000
N dwell: 200.000000
Filament current (A): 1.540000
Filament emission (mA): 1.680930
Solenoid current (A): NaN
Solenoid shim current (A): NaN
Lens params:
0  685
1  300
2  125
3      -0.002
4       -0.01
5       0.012
6         0.8
7         2.1
8         2.8
9  3000
10  1450
11         0.85
12   0
==========
Data:
z(nm),I(A)
200000,4.2706e-11,
100000,4.3595e-11,
0,4.4432e-11,
-100000,4.5901e-11,
-200000,4.3839e-11,
-300000,4.3705e-11,
-400000,4.4231e-11,
-500000,4.3708e-11,
-600000,4.601e-11,
-700000,5.0307e-11,
-800000,6.4983e-11,
-900000,9.1696e-11,
-1000000,8.9452e-11,
-1100000,8.0387e-11,
-1200000,7.3586e-11,
-1300000,6.1812e-11,
-1400000,6.0521e-11,
-1500000,5.6607e-11,
-1600000,5.3755e-11,
-1700000,5.4621e-11,
-1800000,5.533e-11,
-1900000,5.6056e-11,
-2000000,5.5124e-11,
-2100000,5.2527e-11,
-2200000,5.043e-11,
-2300000,4.8877e-11,
-2400000,4.7234e-11,
-2500000,4.7033e-11,
-2600000,4.7552e-11,
-2700000,4.6831e-11,
-2800000,4.7797e-11,
-2900000,4.6802e-11,
-3000000,4.5386e-11,
-3100000,4.4165e-11,
-3200000,4.3417e-11,
-3300000,4.3066e-11,
-3400000,4.3039e-11,
-3500000,4.0699e-11,
-3600000,3.9801e-11,
-3700000,3.8535e-11,
-3800000,3.6683e-11,
-3900000,3.5354e-11,
-4000000,3.3288e-11,
-4100000,3.2379e-11,
-4200000,3.1081e-11,
-4300000,3.0226e-11,
-4400000,2.9075e-11,
-4500000,2.8397e-11,
-4600000,2.8e-11,
-4700000,2.767e-11,
-4800000,2.7148e-11,
-4900000,2.7013e-11,
-5000000,2.7346e-11,
-4950000,2.6937e-11,
-4850000,2.7098e-11,
-4750000,2.7857e-11,
-4650000,2.7933e-11,
-4550000,2.8232e-11,
-4450000,2.9677e-11,
-4350000,2.9018e-11,
-4250000,2.9793e-11,
-4150000,3.1158e-11,
-4050000,3.2752e-11,
-3950000,3.5406e-11,
-3850000,3.604e-11,
-3750000,3.7809e-11,
-3650000,3.9572e-11,
-3550000,4.0505e-11,
-3450000,4.134e-11,
-3350000,4.3709e-11,
-3250000,4.3126e-11,
-3150000,4.4352e-11,
-3050000,4.5388e-11,
-2950000,4.631e-11,
-2850000,4.6815e-11,
-2750000,4.8282e-11,
-2650000,4.814e-11,
-2550000,4.6495e-11,
-2450000,4.8221e-11,
-2350000,4.7754e-11,
-2250000,4.8462e-11,
-2150000,5.1392e-11,
-2050000,5.4787e-11,
-1950000,5.7062e-11,
-1850000,5.7274e-11,
-1750000,5.7547e-11,
-1650000,5.5512e-11,
-1550000,5.5667e-11,
-1450000,6.04e-11,
-1350000,6.607e-11,
-1250000,7.0599e-11,
-1150000,8.5986e-11,
-1050000,9.3152e-11,
-950000,1.0115e-10,
-850000,8.2707e-11,
-750000,5.9393e-11,
-650000,4.7888e-11,
-550000,4.5802e-11,
-450000,4.4502e-11,
-350000,4.3671e-11,
-250000,4.3408e-11,
-150000,4.4948e-11,
-50000,4.262e-11,
50000,4.3471e-11,
150000,4.2446e-11,
