General parameters:
Start time: 2023              8             18             19             15       3.921892
Finish time: 2023              8             18             19             21       0.180576
Dwell time (ms): 3000.000000
Source chamber pressure: 2.00e+3
Differential chamber pressure: 7.94e-07
Sample chamber pressure: 3.84e-08
Example position (nm): -3247085.324904,289945.998030,-1000000.000000
Rotation angle (udeg): 102499975.000000
==========
Instrument status: 
0:Data Directory:/icon/data/2023_08_MoS2_5um_hbn_sub/
1:Sample:MoS2
2:Comments:no
3:PinholePlate:#C13
4:z_Zero:4200
5:Operator:djw77/nav31/kw570
==========
zscan inputs: 
z_sep:50000
z_range:200000 -5000000
data_path:/icon/data/2023_08_MoS2_5um_hbn_sub/
example_pos:-3247085.3249      289945.99803          -1000000
N_dwell:200
sampling_period:15
make_plots:0
m1:0.98976
m2:-0.0073571
==========
Detector params:
Sampling period (ms): 15.000000
N dwell: 200.000000
Filament current (A): 1.540000
Filament emission (mA): 1.667250
Solenoid current (A): NaN
Solenoid shim current (A): NaN
Lens params:
0  685
1  300
2  125
3      -0.002
4       -0.01
5       0.012
6         0.8
7         2.1
8         2.8
9  3000
10  1450
11         0.85
12   0
==========
Data:
z(nm),I(A)
200000,3.9461e-11,
100000,3.8784e-11,
0,3.9826e-11,
-100000,3.9203e-11,
-200000,3.928e-11,
-300000,3.9718e-11,
-400000,4.0407e-11,
-500000,4.0765e-11,
-600000,3.9936e-11,
-700000,3.9878e-11,
-800000,4.1149e-11,
-900000,4.0821e-11,
-1000000,4.1287e-11,
-1100000,4.1814e-11,
-1200000,4.1613e-11,
-1300000,4.2479e-11,
-1400000,4.2144e-11,
-1500000,4.2584e-11,
-1600000,4.3291e-11,
-1700000,4.2662e-11,
-1800000,4.3003e-11,
-1900000,4.303e-11,
-2000000,4.233e-11,
-2100000,4.1929e-11,
-2200000,4.0986e-11,
-2300000,4.0394e-11,
-2400000,4.0822e-11,
-2500000,4.1182e-11,
-2600000,4.0114e-11,
-2700000,3.9561e-11,
-2800000,3.8235e-11,
-2900000,3.8554e-11,
-3000000,3.6739e-11,
-3100000,3.6916e-11,
-3200000,3.5943e-11,
-3300000,3.7397e-11,
-3400000,3.4618e-11,
-3500000,3.4782e-11,
-3600000,3.4595e-11,
-3700000,3.3652e-11,
-3800000,3.306e-11,
-3900000,3.2173e-11,
-4000000,3.1833e-11,
-4100000,3.1065e-11,
-4200000,3.0862e-11,
-4300000,2.9486e-11,
-4400000,2.941e-11,
-4500000,2.9503e-11,
-4600000,2.7742e-11,
-4700000,2.762e-11,
-4800000,2.7539e-11,
-4900000,2.7714e-11,
-5000000,2.5947e-11,
-4950000,2.6453e-11,
-4850000,2.7063e-11,
-4750000,2.7555e-11,
-4650000,2.7527e-11,
-4550000,2.9017e-11,
-4450000,2.8811e-11,
-4350000,2.985e-11,
-4250000,3.0797e-11,
-4150000,3.1644e-11,
-4050000,3.1965e-11,
-3950000,3.166e-11,
-3850000,3.2459e-11,
-3750000,3.3756e-11,
-3650000,3.3542e-11,
-3550000,3.4865e-11,
-3450000,3.4394e-11,
-3350000,3.5549e-11,
-3250000,3.5602e-11,
-3150000,3.7334e-11,
-3050000,3.7306e-11,
-2950000,3.8834e-11,
-2850000,3.7994e-11,
-2750000,3.8633e-11,
-2650000,3.8994e-11,
-2550000,4.0405e-11,
-2450000,4.058e-11,
-2350000,4.0458e-11,
-2250000,4.1472e-11,
-2150000,4.1454e-11,
-2050000,4.1794e-11,
-1950000,4.2253e-11,
-1850000,4.2284e-11,
-1750000,4.2067e-11,
-1650000,4.3242e-11,
-1550000,4.1923e-11,
-1450000,4.2123e-11,
-1350000,4.2198e-11,
-1250000,4.2e-11,
-1150000,4.2279e-11,
-1050000,4.1215e-11,
-950000,4.0721e-11,
-850000,4.0724e-11,
-750000,4.1195e-11,
-650000,4.112e-11,
-550000,4.0512e-11,
-450000,3.9867e-11,
-350000,4.024e-11,
-250000,4.0673e-11,
-150000,4.036e-11,
-50000,3.9001e-11,
50000,3.944e-11,
150000,3.9432e-11,
