General parameters:
Start time: 2023              8             28              2             21      11.793272
Finish time: 2023              8             28              2             27       8.494789
Dwell time (ms): 3000.000000
Source chamber pressure: 2.00e+3
Differential chamber pressure: 6.35e-07
Sample chamber pressure: 3.62e-08
Example position (nm): -3951184.654640,79269.761377,-1000000.000000
Rotation angle (udeg): 57499650.000000
==========
Instrument status: 
0:Data Directory:/icon/data/2023_08_MoS2_5um_hbn_sub/
1:Sample:MoS2
2:Comments:no
3:PinholePlate:#C13
4:z_Zero:4200
5:Operator:djw77/nav31/kw570
==========
zscan inputs: 
z_sep:50000
z_range:200000 -5000000
data_path:/icon/data/2023_08_MoS2_5um_hbn_sub/
example_pos:-3951184.6546      79269.761377          -1000000
N_dwell:200
sampling_period:15
make_plots:1
m1:0.98976
m2:-0.0073571
==========
Detector params:
Sampling period (ms): 15.000000
N dwell: 200.000000
Filament current (A): 1.540000
Filament emission (mA): 1.900836
Solenoid current (A): NaN
Solenoid shim current (A): NaN
Lens params:
0  685
1  300
2  125
3      -0.002
4       -0.01
5       0.012
6         0.8
7         2.1
8         2.8
9  3000
10  1450
11         0.85
12   0
==========
Data:
z(nm),I(A)
200000,6.5907e-11,
100000,6.6498e-11,
0,6.8765e-11,
-100000,7.0468e-11,
-200000,7.3002e-11,
-300000,7.0205e-11,
-400000,7.4116e-11,
-500000,7.5527e-11,
-600000,7.9921e-11,
-700000,8.5376e-11,
-800000,9.7001e-11,
-900000,1.1881e-10,
-1000000,1.1896e-10,
-1100000,1.022e-10,
-1200000,9.9474e-11,
-1300000,9.3125e-11,
-1400000,9.5093e-11,
-1500000,9.2288e-11,
-1600000,9.011e-11,
-1700000,8.8917e-11,
-1800000,8.7949e-11,
-1900000,8.4906e-11,
-2000000,8.204e-11,
-2100000,7.9065e-11,
-2200000,7.6457e-11,
-2300000,7.603e-11,
-2400000,7.4479e-11,
-2500000,7.1752e-11,
-2600000,7.0693e-11,
-2700000,6.895e-11,
-2800000,6.6653e-11,
-2900000,6.4755e-11,
-3000000,6.2398e-11,
-3100000,5.9866e-11,
-3200000,5.8822e-11,
-3300000,5.5319e-11,
-3400000,5.3951e-11,
-3500000,5.1429e-11,
-3600000,4.9374e-11,
-3700000,4.6677e-11,
-3800000,4.5567e-11,
-3900000,4.3056e-11,
-4000000,4.1712e-11,
-4100000,4.0522e-11,
-4200000,3.8238e-11,
-4300000,3.7104e-11,
-4400000,3.528e-11,
-4500000,3.5607e-11,
-4600000,3.3455e-11,
-4700000,3.2181e-11,
-4800000,3.0961e-11,
-4900000,2.997e-11,
-5000000,2.9334e-11,
-4950000,2.9325e-11,
-4850000,3.0721e-11,
-4750000,3.2253e-11,
-4650000,3.24e-11,
-4550000,3.4015e-11,
-4450000,3.5113e-11,
-4350000,3.672e-11,
-4250000,3.7415e-11,
-4150000,3.9763e-11,
-4050000,4.1269e-11,
-3950000,4.2641e-11,
-3850000,4.3931e-11,
-3750000,4.5615e-11,
-3650000,4.7788e-11,
-3550000,4.9856e-11,
-3450000,5.2388e-11,
-3350000,5.4766e-11,
-3250000,5.6527e-11,
-3150000,5.951e-11,
-3050000,6.1385e-11,
-2950000,6.4165e-11,
-2850000,6.5628e-11,
-2750000,6.8256e-11,
-2650000,7.0769e-11,
-2550000,7.0826e-11,
-2450000,7.3172e-11,
-2350000,7.4712e-11,
-2250000,7.6401e-11,
-2150000,7.8372e-11,
-2050000,8.1825e-11,
-1950000,8.5191e-11,
-1850000,8.6174e-11,
-1750000,8.8763e-11,
-1650000,9.0315e-11,
-1550000,9.2669e-11,
-1450000,9.5233e-11,
-1350000,9.5153e-11,
-1250000,9.4243e-11,
-1150000,9.7029e-11,
-1050000,9.8776e-11,
-950000,1.1292e-10,
-850000,1.0428e-10,
-750000,8.8233e-11,
-650000,7.6149e-11,
-550000,7.5158e-11,
-450000,7.329e-11,
-350000,6.8081e-11,
-250000,6.6779e-11,
-150000,6.8778e-11,
-50000,6.519e-11,
50000,6.4124e-11,
150000,6.3078e-11,
