General parameters:
Start time: 2023              9             22             10             18      41.967998
Finish time: 2023              9             22             10             27      45.644624
Dwell time (ms): 3750.000000
Source chamber pressure: Error-S
Differential chamber pressure: 7.82e-07
Sample chamber pressure: 3.58e-08
Example position (nm): -4610000.000000,253000.000000,-2700000.000000
Rotation angle (udeg): 124999885.000000
==========
Instrument status: 
0:Data Directory:/icon/data/2023_08_MoS2_5um_hbn_sub/
1:Sample:MoS2
2:Comments:no
3:PinholePlate:#C13
4:z_Zero:4200
5:Operator:djw77/nav31/kw570
==========
zscan inputs: 
z_sep:50000
z_range:500000 -6000000
data_path:/icon/data/2023_08_MoS2_5um_hbn_sub/
example_pos:-4610000   253000 -2700000
N_dwell:250
sampling_period:15
make_plots:1
m1:0.98976
m2:-0.0073571
==========
Detector params:
Sampling period (ms): 15.000000
N dwell: 250.000000
Filament current (A): 1.540000
Filament emission (mA): 2.895030
Solenoid current (A): NaN
Solenoid shim current (A): NaN
Lens params:
0  685
1  300
2  125
3      -0.002
4       -0.01
5       0.012
6         0.8
7         2.1
8         2.8
9  3000
10  1450
11         0.85
12   0
==========
Data:
z(nm),I(A)
500000,2.5667e-10,
400000,2.7546e-10,
300000,2.7638e-10,
200000,2.7233e-10,
100000,2.7087e-10,
0,2.6465e-10,
-100000,2.5643e-10,
-200000,2.5186e-10,
-300000,2.5024e-10,
-400000,2.5362e-10,
-500000,2.7382e-10,
-600000,3.3216e-10,
-700000,4.5501e-10,
-800000,5.836e-10,
-900000,5.3205e-10,
-1000000,3.7864e-10,
-1100000,2.8321e-10,
-1200000,2.3908e-10,
-1300000,2.3114e-10,
-1400000,2.5091e-10,
-1500000,3.0566e-10,
-1600000,4.0963e-10,
-1700000,4.6546e-10,
-1800000,4.5086e-10,
-1900000,3.746e-10,
-2000000,2.7499e-10,
-2100000,2.3077e-10,
-2200000,2.2982e-10,
-2300000,2.7757e-10,
-2400000,3.859e-10,
-2500000,5.2822e-10,
-2600000,6.3281e-10,
-2700000,6.5491e-10,
-2800000,5.9124e-10,
-2900000,4.6472e-10,
-3000000,3.2553e-10,
-3100000,2.4083e-10,
-3200000,2.1302e-10,
-3300000,2.1143e-10,
-3400000,2.3e-10,
-3500000,2.7037e-10,
-3600000,3.224e-10,
-3700000,3.6165e-10,
-3800000,3.5798e-10,
-3900000,3.2898e-10,
-4000000,2.8196e-10,
-4100000,2.2876e-10,
-4200000,1.8791e-10,
-4300000,1.5996e-10,
-4400000,1.4634e-10,
-4500000,1.3861e-10,
-4600000,1.3634e-10,
-4700000,1.3507e-10,
-4800000,1.3544e-10,
-4900000,1.3714e-10,
-5000000,1.3985e-10,
-5100000,1.425e-10,
-5200000,1.4339e-10,
-5300000,1.4284e-10,
-5400000,1.4192e-10,
-5500000,1.3541e-10,
-5600000,1.2543e-10,
-5700000,1.2336e-10,
-5800000,1.1969e-10,
-5900000,1.1537e-10,
-6000000,1.1162e-10,
-5950000,1.1221e-10,
-5850000,1.1657e-10,
-5750000,1.2189e-10,
-5650000,1.2639e-10,
-5550000,1.2565e-10,
-5450000,1.4038e-10,
-5350000,1.4188e-10,
-5250000,1.4332e-10,
-5150000,1.4352e-10,
-5050000,1.4211e-10,
-4950000,1.4009e-10,
-4850000,1.3739e-10,
-4750000,1.3596e-10,
-4650000,1.3571e-10,
-4550000,1.3715e-10,
-4450000,1.4253e-10,
-4350000,1.5083e-10,
-4250000,1.7106e-10,
-4150000,2.0588e-10,
-4050000,2.5204e-10,
-3950000,2.9896e-10,
-3850000,3.4142e-10,
-3750000,3.578e-10,
-3650000,3.3937e-10,
-3550000,2.9983e-10,
-3450000,2.5509e-10,
-3350000,2.1998e-10,
-3250000,2.1241e-10,
-3150000,2.2254e-10,
-3050000,2.7093e-10,
-2950000,3.7833e-10,
-2850000,5.3382e-10,
-2750000,6.3481e-10,
-2650000,6.5648e-10,
-2550000,6.1069e-10,
-2450000,4.7002e-10,
-2350000,3.3197e-10,
-2250000,2.5173e-10,
-2150000,2.3094e-10,
-2050000,2.4592e-10,
-1950000,3.1303e-10,
-1850000,4.0386e-10,
-1750000,4.5473e-10,
-1650000,4.4376e-10,
-1550000,3.6247e-10,
-1450000,2.8389e-10,
-1350000,2.4649e-10,
-1250000,2.3984e-10,
-1150000,2.5796e-10,
-1050000,3.1755e-10,
-950000,4.4064e-10,
-850000,5.8079e-10,
-750000,5.3648e-10,
-650000,3.8411e-10,
-550000,3.0729e-10,
-450000,2.7195e-10,
-350000,2.6627e-10,
-250000,2.6406e-10,
-150000,2.617e-10,
-50000,2.7031e-10,
50000,2.7544e-10,
150000,2.7609e-10,
250000,2.748e-10,
350000,2.7627e-10,
450000,2.6816e-10,
