General parameters:
Start time: 2023              8             22              3             22      27.522309
Finish time: 2023              8             22              3             28      22.905705
Dwell time (ms): 3000.000000
Source chamber pressure: 2.00e+3
Differential chamber pressure: 7.98e-07
Sample chamber pressure: 3.79e-08
Example position (nm): -2962410.649286,238124.556854,-1000000.000000
Rotation angle (udeg): 124999810.000000
==========
Instrument status: 
0:Data Directory:/icon/data/2023_08_MoS2_5um_hbn_sub/
1:Sample:MoS2
2:Comments:no
3:PinholePlate:#C13
4:z_Zero:4200
5:Operator:djw77/nav31/kw570
==========
zscan inputs: 
z_sep:50000
z_range:200000 -5000000
data_path:/icon/data/2023_08_MoS2_5um_hbn_sub/
example_pos:-2962410.6493      238124.55685          -1000000
N_dwell:200
sampling_period:15
make_plots:0
m1:0.98976
m2:-0.0073571
==========
Detector params:
Sampling period (ms): 15.000000
N dwell: 200.000000
Filament current (A): 1.540000
Filament emission (mA): 1.754460
Solenoid current (A): NaN
Solenoid shim current (A): NaN
Lens params:
0  685
1  300
2  125
3      -0.002
4       -0.01
5       0.012
6         0.8
7         2.1
8         2.8
9  3000
10  1450
11         0.85
12   0
==========
Data:
z(nm),I(A)
200000,4.2706e-11,
100000,4.2663e-11,
0,4.429e-11,
-100000,4.2842e-11,
-200000,4.3427e-11,
-300000,4.3454e-11,
-400000,4.3101e-11,
-500000,4.4787e-11,
-600000,4.4367e-11,
-700000,4.4209e-11,
-800000,4.5109e-11,
-900000,4.5668e-11,
-1000000,4.5248e-11,
-1100000,4.4892e-11,
-1200000,4.5587e-11,
-1300000,4.589e-11,
-1400000,4.621e-11,
-1500000,4.5117e-11,
-1600000,4.5858e-11,
-1700000,4.5777e-11,
-1800000,4.4921e-11,
-1900000,4.4538e-11,
-2000000,4.5305e-11,
-2100000,4.4571e-11,
-2200000,4.524e-11,
-2300000,4.4014e-11,
-2400000,4.4174e-11,
-2500000,4.2158e-11,
-2600000,4.224e-11,
-2700000,4.2068e-11,
-2800000,4.2697e-11,
-2900000,4.0915e-11,
-3000000,3.9683e-11,
-3100000,4.0487e-11,
-3200000,3.9545e-11,
-3300000,3.9986e-11,
-3400000,3.8394e-11,
-3500000,3.7322e-11,
-3600000,3.7255e-11,
-3700000,3.6562e-11,
-3800000,3.5613e-11,
-3900000,3.5069e-11,
-4000000,3.4769e-11,
-4100000,3.3777e-11,
-4200000,3.3387e-11,
-4300000,3.2579e-11,
-4400000,3.2792e-11,
-4500000,3.139e-11,
-4600000,3.1174e-11,
-4700000,2.9343e-11,
-4800000,2.9831e-11,
-4900000,2.8976e-11,
-5000000,2.8399e-11,
-4950000,2.8757e-11,
-4850000,2.9336e-11,
-4750000,2.9092e-11,
-4650000,2.949e-11,
-4550000,3.075e-11,
-4450000,3.1607e-11,
-4350000,3.206e-11,
-4250000,3.3249e-11,
-4150000,3.4595e-11,
-4050000,3.3519e-11,
-3950000,3.4803e-11,
-3850000,3.4915e-11,
-3750000,3.6492e-11,
-3650000,3.6428e-11,
-3550000,3.7484e-11,
-3450000,3.7813e-11,
-3350000,3.817e-11,
-3250000,3.9168e-11,
-3150000,3.8712e-11,
-3050000,4.0542e-11,
-2950000,4.1684e-11,
-2850000,4.1043e-11,
-2750000,4.2118e-11,
-2650000,4.2602e-11,
-2550000,4.2436e-11,
-2450000,4.2872e-11,
-2350000,4.3569e-11,
-2250000,4.5212e-11,
-2150000,4.5152e-11,
-2050000,4.4196e-11,
-1950000,4.5096e-11,
-1850000,4.5906e-11,
-1750000,4.5848e-11,
-1650000,4.5648e-11,
-1550000,4.5226e-11,
-1450000,4.6077e-11,
-1350000,4.6097e-11,
-1250000,4.501e-11,
-1150000,4.5621e-11,
-1050000,4.5184e-11,
-950000,4.5646e-11,
-850000,4.4975e-11,
-750000,4.4132e-11,
-650000,4.4854e-11,
-550000,4.4695e-11,
-450000,4.3497e-11,
-350000,4.399e-11,
-250000,4.4403e-11,
-150000,4.3189e-11,
-50000,4.3003e-11,
50000,4.3219e-11,
150000,4.2853e-11,
