General parameters:
Start time: 2023              8             21             21             33      26.914633
Finish time: 2023              8             21             21             39      22.594119
Dwell time (ms): 3000.000000
Source chamber pressure: 2.00e+3
Differential chamber pressure: 7.97e-07
Sample chamber pressure: 3.84e-08
Example position (nm): -3646895.857158,268086.411104,-1000000.000000
Rotation angle (udeg): 77499955.000000
==========
Instrument status: 
0:Data Directory:/icon/data/2023_08_MoS2_5um_hbn_sub/
1:Sample:MoS2
2:Comments:no
3:PinholePlate:#C13
4:z_Zero:4200
5:Operator:djw77/nav31/kw570
==========
zscan inputs: 
z_sep:50000
z_range:200000 -5000000
data_path:/icon/data/2023_08_MoS2_5um_hbn_sub/
example_pos:-3646895.8572       268086.4111          -1000000
N_dwell:200
sampling_period:15
make_plots:0
m1:0.98976
m2:-0.0073571
==========
Detector params:
Sampling period (ms): 15.000000
N dwell: 200.000000
Filament current (A): 1.540000
Filament emission (mA): 1.736334
Solenoid current (A): NaN
Solenoid shim current (A): NaN
Lens params:
0  685
1  300
2  125
3      -0.002
4       -0.01
5       0.012
6         0.8
7         2.1
8         2.8
9  3000
10  1450
11         0.85
12   0
==========
Data:
z(nm),I(A)
200000,4.2385e-11,
100000,4.2341e-11,
0,4.2659e-11,
-100000,4.2976e-11,
-200000,4.4583e-11,
-300000,4.3295e-11,
-400000,4.3145e-11,
-500000,4.4509e-11,
-600000,4.5061e-11,
-700000,4.4897e-11,
-800000,4.6462e-11,
-900000,4.6947e-11,
-1000000,4.7537e-11,
-1100000,4.7941e-11,
-1200000,4.7652e-11,
-1300000,4.8435e-11,
-1400000,4.8735e-11,
-1500000,4.8787e-11,
-1600000,4.9007e-11,
-1700000,4.9546e-11,
-1800000,4.9802e-11,
-1900000,4.9649e-11,
-2000000,4.8907e-11,
-2100000,4.8692e-11,
-2200000,4.8575e-11,
-2300000,4.7888e-11,
-2400000,4.8112e-11,
-2500000,4.7216e-11,
-2600000,4.6667e-11,
-2700000,4.615e-11,
-2800000,4.5371e-11,
-2900000,4.546e-11,
-3000000,4.4499e-11,
-3100000,4.3369e-11,
-3200000,4.2787e-11,
-3300000,4.3366e-11,
-3400000,4.157e-11,
-3500000,4.1028e-11,
-3600000,3.9683e-11,
-3700000,3.9541e-11,
-3800000,3.8723e-11,
-3900000,3.8581e-11,
-4000000,3.7347e-11,
-4100000,3.6836e-11,
-4200000,3.631e-11,
-4300000,3.5088e-11,
-4400000,3.4977e-11,
-4500000,3.3135e-11,
-4600000,3.2703e-11,
-4700000,3.2406e-11,
-4800000,3.2302e-11,
-4900000,3.2405e-11,
-5000000,3.0844e-11,
-4950000,3.0968e-11,
-4850000,3.1451e-11,
-4750000,3.2328e-11,
-4650000,3.2745e-11,
-4550000,3.2805e-11,
-4450000,3.4265e-11,
-4350000,3.5127e-11,
-4250000,3.49e-11,
-4150000,3.5695e-11,
-4050000,3.6803e-11,
-3950000,3.7715e-11,
-3850000,3.9485e-11,
-3750000,3.8866e-11,
-3650000,4.0035e-11,
-3550000,3.9425e-11,
-3450000,4.0578e-11,
-3350000,4.2731e-11,
-3250000,4.2519e-11,
-3150000,4.2509e-11,
-3050000,4.5693e-11,
-2950000,4.4357e-11,
-2850000,4.5648e-11,
-2750000,4.6002e-11,
-2650000,4.6354e-11,
-2550000,4.7249e-11,
-2450000,4.6354e-11,
-2350000,4.835e-11,
-2250000,4.8269e-11,
-2150000,4.7756e-11,
-2050000,4.9231e-11,
-1950000,4.9662e-11,
-1850000,4.9918e-11,
-1750000,4.9514e-11,
-1650000,4.8543e-11,
-1550000,4.8358e-11,
-1450000,4.8724e-11,
-1350000,4.7381e-11,
-1250000,4.7964e-11,
-1150000,4.7228e-11,
-1050000,4.7006e-11,
-950000,4.718e-11,
-850000,4.7827e-11,
-750000,4.597e-11,
-650000,4.5324e-11,
-550000,4.4136e-11,
-450000,4.448e-11,
-350000,4.2586e-11,
-250000,4.307e-11,
-150000,4.2187e-11,
-50000,4.3036e-11,
50000,4.3094e-11,
150000,4.3434e-11,
