General parameters:
Start time: 2023              8             22             12             12      36.309729
Finish time: 2023              8             22             12             18      31.083484
Dwell time (ms): 3000.000000
Source chamber pressure: 2.00e+3
Differential chamber pressure: 7.97e-07
Sample chamber pressure: 3.84e-08
Example position (nm): -3588345.909664,225755.528188,-1000000.000000
Rotation angle (udeg): 77500155.000000
==========
Instrument status: 
0:Data Directory:/icon/data/2023_08_MoS2_5um_hbn_sub/
1:Sample:MoS2
2:Comments:no
3:PinholePlate:#C13
4:z_Zero:4200
5:Operator:djw77/nav31/kw570
==========
zscan inputs: 
z_sep:50000
z_range:200000 -5000000
data_path:/icon/data/2023_08_MoS2_5um_hbn_sub/
example_pos:-3588345.9097      225755.52819          -1000000
N_dwell:200
sampling_period:15
make_plots:0
m1:0.98976
m2:-0.0073571
==========
Detector params:
Sampling period (ms): 15.000000
N dwell: 200.000000
Filament current (A): 1.540000
Filament emission (mA): 1.741122
Solenoid current (A): NaN
Solenoid shim current (A): NaN
Lens params:
0  685
1  300
2  125
3      -0.002
4       -0.01
5       0.012
6         0.8
7         2.1
8         2.8
9  3000
10  1450
11         0.85
12   0
==========
Data:
z(nm),I(A)
200000,4.275e-11,
100000,4.1516e-11,
0,4.2187e-11,
-100000,4.2311e-11,
-200000,4.202e-11,
-300000,4.3026e-11,
-400000,4.2271e-11,
-500000,4.4494e-11,
-600000,4.3806e-11,
-700000,4.4963e-11,
-800000,4.4793e-11,
-900000,4.5292e-11,
-1000000,4.6833e-11,
-1100000,4.5816e-11,
-1200000,4.6657e-11,
-1300000,4.7846e-11,
-1400000,4.7716e-11,
-1500000,4.8152e-11,
-1600000,4.7375e-11,
-1700000,4.7351e-11,
-1800000,4.8268e-11,
-1900000,4.725e-11,
-2000000,4.8593e-11,
-2100000,4.7575e-11,
-2200000,4.741e-11,
-2300000,4.6235e-11,
-2400000,4.6777e-11,
-2500000,4.6062e-11,
-2600000,4.5468e-11,
-2700000,4.649e-11,
-2800000,4.4483e-11,
-2900000,4.3934e-11,
-3000000,4.3579e-11,
-3100000,4.2248e-11,
-3200000,4.2364e-11,
-3300000,4.1503e-11,
-3400000,4.0987e-11,
-3500000,4.0117e-11,
-3600000,3.9836e-11,
-3700000,3.8735e-11,
-3800000,3.7356e-11,
-3900000,3.7238e-11,
-4000000,3.7557e-11,
-4100000,3.5426e-11,
-4200000,3.5667e-11,
-4300000,3.4558e-11,
-4400000,3.3925e-11,
-4500000,3.3338e-11,
-4600000,3.2719e-11,
-4700000,3.2277e-11,
-4800000,3.1608e-11,
-4900000,3.0811e-11,
-5000000,3.0172e-11,
-4950000,3.1373e-11,
-4850000,3.1421e-11,
-4750000,3.2087e-11,
-4650000,3.2946e-11,
-4550000,3.2958e-11,
-4450000,3.364e-11,
-4350000,3.4448e-11,
-4250000,3.5067e-11,
-4150000,3.5276e-11,
-4050000,3.5768e-11,
-3950000,3.6764e-11,
-3850000,3.6804e-11,
-3750000,3.8574e-11,
-3650000,3.8147e-11,
-3550000,3.8922e-11,
-3450000,4.054e-11,
-3350000,4.0707e-11,
-3250000,4.1729e-11,
-3150000,4.2593e-11,
-3050000,4.2121e-11,
-2950000,4.3052e-11,
-2850000,4.4414e-11,
-2750000,4.4947e-11,
-2650000,4.5166e-11,
-2550000,4.5854e-11,
-2450000,4.6645e-11,
-2350000,4.6969e-11,
-2250000,4.6425e-11,
-2150000,4.7608e-11,
-2050000,4.7893e-11,
-1950000,4.7345e-11,
-1850000,4.8306e-11,
-1750000,4.8279e-11,
-1650000,4.7046e-11,
-1550000,4.7287e-11,
-1450000,4.6964e-11,
-1350000,4.8219e-11,
-1250000,4.842e-11,
-1150000,4.6663e-11,
-1050000,4.6142e-11,
-950000,4.5876e-11,
-850000,4.6228e-11,
-750000,4.5064e-11,
-650000,4.4657e-11,
-550000,4.355e-11,
-450000,4.3974e-11,
-350000,4.2889e-11,
-250000,4.1662e-11,
-150000,4.1518e-11,
-50000,4.2998e-11,
50000,4.2331e-11,
150000,4.3059e-11,
