General parameters:
Start time: 2023              9             27             13             53      31.635243
Finish time: 2023              9             27             14              2      34.330295
Dwell time (ms): 3750.000000
Source chamber pressure: Error-S
Differential chamber pressure: 6.19e-07
Sample chamber pressure: 3.51e-08
Example position (nm): -4478000.000000,102000.000000,-2700000.000000
Rotation angle (udeg): 124999985.000000
==========
Instrument status: 
0:Data Directory:/icon/data/2023_08_MoS2_5um_hbn_sub/
1:Sample:MoS2
2:Comments:no
3:PinholePlate:#C13
4:z_Zero:4200
5:Operator:djw77/nav31/kw570
==========
zscan inputs: 
z_sep:50000
z_range:500000 -6000000
data_path:/icon/data/2023_08_MoS2_5um_hbn_sub/
example_pos:-4478000   102000 -2700000
N_dwell:250
sampling_period:15
make_plots:1
m1:0.98976
m2:-0.0073571
==========
Detector params:
Sampling period (ms): 15.000000
N dwell: 250.000000
Filament current (A): 1.540000
Filament emission (mA): 2.963430
Solenoid current (A): NaN
Solenoid shim current (A): NaN
Lens params:
0  685
1  300
2  125
3      -0.002
4       -0.01
5       0.012
6         0.8
7         2.1
8         2.8
9  3000
10  1450
11         0.85
12   0
==========
Data:
z(nm),I(A)
500000,1.7034e-10,
400000,1.7281e-10,
300000,1.7357e-10,
200000,1.7785e-10,
100000,1.7753e-10,
0,1.775e-10,
-100000,1.776e-10,
-200000,1.7913e-10,
-300000,1.7901e-10,
-400000,1.7993e-10,
-500000,1.8241e-10,
-600000,1.8176e-10,
-700000,1.8198e-10,
-800000,1.8368e-10,
-900000,1.8674e-10,
-1000000,1.8317e-10,
-1100000,1.8621e-10,
-1200000,1.8476e-10,
-1300000,1.8646e-10,
-1400000,1.8661e-10,
-1500000,1.8829e-10,
-1600000,1.8718e-10,
-1700000,1.872e-10,
-1800000,1.8553e-10,
-1900000,1.8416e-10,
-2000000,1.8289e-10,
-2100000,1.8183e-10,
-2200000,1.8235e-10,
-2300000,1.807e-10,
-2400000,1.787e-10,
-2500000,1.7634e-10,
-2600000,1.7518e-10,
-2700000,1.7327e-10,
-2800000,1.7042e-10,
-2900000,1.6859e-10,
-3000000,1.699e-10,
-3100000,1.6548e-10,
-3200000,1.6394e-10,
-3300000,1.6301e-10,
-3400000,1.6071e-10,
-3500000,1.552e-10,
-3600000,1.5438e-10,
-3700000,1.5371e-10,
-3800000,1.4964e-10,
-3900000,1.4848e-10,
-4000000,1.4655e-10,
-4100000,1.434e-10,
-4200000,1.4132e-10,
-4300000,1.4031e-10,
-4400000,1.3737e-10,
-4500000,1.3636e-10,
-4600000,1.3357e-10,
-4700000,1.3282e-10,
-4800000,1.3071e-10,
-4900000,1.2718e-10,
-5000000,1.2665e-10,
-5100000,1.2596e-10,
-5200000,1.2409e-10,
-5300000,1.2386e-10,
-5400000,1.2108e-10,
-5500000,1.1855e-10,
-5600000,1.1792e-10,
-5700000,1.1713e-10,
-5800000,1.1594e-10,
-5900000,1.1477e-10,
-6000000,1.13e-10,
-5950000,1.1396e-10,
-5850000,1.1522e-10,
-5750000,1.1711e-10,
-5650000,1.1724e-10,
-5550000,1.1812e-10,
-5450000,1.199e-10,
-5350000,1.2188e-10,
-5250000,1.2277e-10,
-5150000,1.2442e-10,
-5050000,1.2586e-10,
-4950000,1.2634e-10,
-4850000,1.2841e-10,
-4750000,1.3117e-10,
-4650000,1.3256e-10,
-4550000,1.345e-10,
-4450000,1.3662e-10,
-4350000,1.3807e-10,
-4250000,1.3998e-10,
-4150000,1.4269e-10,
-4050000,1.4475e-10,
-3950000,1.471e-10,
-3850000,1.4693e-10,
-3750000,1.5118e-10,
-3650000,1.5445e-10,
-3550000,1.5498e-10,
-3450000,1.5727e-10,
-3350000,1.6098e-10,
-3250000,1.6277e-10,
-3150000,1.6279e-10,
-3050000,1.6671e-10,
-2950000,1.6788e-10,
-2850000,1.6961e-10,
-2750000,1.7206e-10,
-2650000,1.7293e-10,
-2550000,1.7615e-10,
-2450000,1.7673e-10,
-2350000,1.8015e-10,
-2250000,1.7933e-10,
-2150000,1.8058e-10,
-2050000,1.8419e-10,
-1950000,1.8485e-10,
-1850000,1.8501e-10,
-1750000,1.846e-10,
-1650000,1.853e-10,
-1550000,1.8721e-10,
-1450000,1.8582e-10,
-1350000,1.8644e-10,
-1250000,1.8638e-10,
-1150000,1.8475e-10,
-1050000,1.8564e-10,
-950000,1.8449e-10,
-850000,1.853e-10,
-750000,1.8453e-10,
-650000,1.8417e-10,
-550000,1.8279e-10,
-450000,1.7976e-10,
-350000,1.7985e-10,
-250000,1.7807e-10,
-150000,1.7872e-10,
-50000,1.7646e-10,
50000,1.785e-10,
150000,1.7669e-10,
250000,1.7451e-10,
350000,1.728e-10,
450000,1.7026e-10,
