General parameters:
Start time: 2023              8             19             16             46       5.295731
Finish time: 2023              8             19             16             52        5.76677
Dwell time (ms): 3000.000000
Source chamber pressure: 2.00e+3
Differential chamber pressure: 7.98e-07
Sample chamber pressure: 3.79e-08
Example position (nm): -3035334.196315,255045.862958,-1000000.000000
Rotation angle (udeg): 117500025.000000
==========
Instrument status: 
0:Data Directory:/icon/data/2023_08_MoS2_5um_hbn_sub/
1:Sample:MoS2
2:Comments:no
3:PinholePlate:#C13
4:z_Zero:4200
5:Operator:djw77/nav31/kw570
==========
zscan inputs: 
z_sep:50000
z_range:200000 -5000000
data_path:/icon/data/2023_08_MoS2_5um_hbn_sub/
example_pos:-3035334.1963      255045.86296          -1000000
N_dwell:200
sampling_period:15
make_plots:0
m1:0.98976
m2:-0.0073571
==========
Detector params:
Sampling period (ms): 15.000000
N dwell: 200.000000
Filament current (A): 1.540000
Filament emission (mA): 1.692216
Solenoid current (A): NaN
Solenoid shim current (A): NaN
Lens params:
0  685
1  300
2  125
3      -0.002
4       -0.01
5       0.012
6         0.8
7         2.1
8         2.8
9  3000
10  1450
11         0.85
12   0
==========
Data:
z(nm),I(A)
200000,4.8328e-11,
100000,4.8258e-11,
0,4.9343e-11,
-100000,4.8863e-11,
-200000,4.8331e-11,
-300000,4.8463e-11,
-400000,5.0373e-11,
-500000,5.2461e-11,
-600000,5.7895e-11,
-700000,6.2758e-11,
-800000,6.1712e-11,
-900000,5.3775e-11,
-1000000,6.2633e-11,
-1100000,6.0103e-11,
-1200000,5.7704e-11,
-1300000,5.5821e-11,
-1400000,5.3987e-11,
-1500000,5.4832e-11,
-1600000,6.5772e-11,
-1700000,7.4073e-11,
-1800000,7.8189e-11,
-1900000,7.4253e-11,
-2000000,6.0917e-11,
-2100000,5.0791e-11,
-2200000,4.8383e-11,
-2300000,4.7924e-11,
-2400000,4.8415e-11,
-2500000,4.9742e-11,
-2600000,4.686e-11,
-2700000,4.5925e-11,
-2800000,4.6612e-11,
-2900000,4.6852e-11,
-3000000,4.5607e-11,
-3100000,4.2751e-11,
-3200000,4.0691e-11,
-3300000,3.9956e-11,
-3400000,3.9991e-11,
-3500000,3.9051e-11,
-3600000,3.7297e-11,
-3700000,3.7822e-11,
-3800000,3.6963e-11,
-3900000,3.6513e-11,
-4000000,3.553e-11,
-4100000,3.4553e-11,
-4200000,3.4123e-11,
-4300000,3.3067e-11,
-4400000,3.2093e-11,
-4500000,3.2912e-11,
-4600000,3.1183e-11,
-4700000,3.0879e-11,
-4800000,3.0047e-11,
-4900000,2.9299e-11,
-5000000,2.9072e-11,
-4950000,2.9589e-11,
-4850000,3.0404e-11,
-4750000,2.9922e-11,
-4650000,3.116e-11,
-4550000,3.1998e-11,
-4450000,3.1675e-11,
-4350000,3.3427e-11,
-4250000,3.3138e-11,
-4150000,3.4043e-11,
-4050000,3.5488e-11,
-3950000,3.5289e-11,
-3850000,3.6406e-11,
-3750000,3.759e-11,
-3650000,3.6855e-11,
-3550000,3.9026e-11,
-3450000,3.9066e-11,
-3350000,4.013e-11,
-3250000,3.9923e-11,
-3150000,4.0984e-11,
-3050000,4.4911e-11,
-2950000,4.5243e-11,
-2850000,4.6599e-11,
-2750000,4.8753e-11,
-2650000,4.8884e-11,
-2550000,4.8441e-11,
-2450000,4.9929e-11,
-2350000,4.7551e-11,
-2250000,4.8835e-11,
-2150000,4.805e-11,
-2050000,5.3571e-11,
-1950000,6.5303e-11,
-1850000,7.527e-11,
-1750000,7.3312e-11,
-1650000,6.6276e-11,
-1550000,5.7028e-11,
-1450000,5.3106e-11,
-1350000,5.4163e-11,
-1250000,5.5221e-11,
-1150000,5.6409e-11,
-1050000,6.0172e-11,
-950000,5.3712e-11,
-850000,5.5172e-11,
-750000,6.3122e-11,
-650000,6.4561e-11,
-550000,5.6263e-11,
-450000,5.1987e-11,
-350000,4.8059e-11,
-250000,4.8673e-11,
-150000,4.8378e-11,
-50000,4.8838e-11,
50000,4.7876e-11,
150000,4.6764e-11,
