General parameters:
Start time: 2023              9              4             20             52      16.350739
Finish time: 2023              9              4             21              1      20.077114
Dwell time (ms): 3750.000000
Source chamber pressure: Error-S
Differential chamber pressure: 7.96e-07
Sample chamber pressure: 3.74e-08
Example position (nm): -4567000.000000,2345000.000000,-2700000.000000
Rotation angle (udeg): 124999925.000000
==========
Instrument status: 
0:Data Directory:/icon/data/2023_08_MoS2_5um_hbn_sub/
1:Sample:MoS2
2:Comments:no
3:PinholePlate:#C13
4:z_Zero:4200
5:Operator:djw77/nav31/kw570
==========
zscan inputs: 
z_sep:50000
z_range:500000 -6000000
data_path:/icon/data/2023_08_MoS2_5um_hbn_sub/
example_pos:-4567000  2345000 -2700000
N_dwell:250
sampling_period:15
make_plots:1
m1:0.98976
m2:-0.0073571
==========
Detector params:
Sampling period (ms): 15.000000
N dwell: 250.000000
Filament current (A): 1.540000
Filament emission (mA): 1.928196
Solenoid current (A): NaN
Solenoid shim current (A): NaN
Lens params:
0  685
1  300
2  125
3      -0.002
4       -0.01
5       0.012
6         0.8
7         2.1
8         2.8
9  3000
10  1450
11         0.85
12   0
==========
Data:
z(nm),I(A)
500000,9.0082e-11,
400000,8.8707e-11,
300000,8.8342e-11,
200000,8.5271e-11,
100000,8.4274e-11,
0,8.3595e-11,
-100000,8.1849e-11,
-200000,8.0244e-11,
-300000,7.9143e-11,
-400000,7.7761e-11,
-500000,7.51e-11,
-600000,7.2645e-11,
-700000,7.1286e-11,
-800000,7.0612e-11,
-900000,6.8592e-11,
-1000000,6.6748e-11,
-1100000,6.5631e-11,
-1200000,6.4903e-11,
-1300000,6.2684e-11,
-1400000,6.2324e-11,
-1500000,6.0679e-11,
-1600000,5.967e-11,
-1700000,5.7985e-11,
-1800000,5.7284e-11,
-1900000,5.5594e-11,
-2000000,5.5486e-11,
-2100000,5.4664e-11,
-2200000,5.393e-11,
-2300000,5.2096e-11,
-2400000,5.1972e-11,
-2500000,5.111e-11,
-2600000,5.1202e-11,
-2700000,4.8841e-11,
-2800000,4.8779e-11,
-2900000,4.7665e-11,
-3000000,4.6976e-11,
-3100000,4.6368e-11,
-3200000,4.5759e-11,
-3300000,4.4287e-11,
-3400000,4.4578e-11,
-3500000,4.3524e-11,
-3600000,4.3485e-11,
-3700000,4.2492e-11,
-3800000,4.2555e-11,
-3900000,4.147e-11,
-4000000,4.2376e-11,
-4100000,4.2146e-11,
-4200000,4.1061e-11,
-4300000,4.0251e-11,
-4400000,3.9576e-11,
-4500000,3.8562e-11,
-4600000,3.9172e-11,
-4700000,3.8786e-11,
-4800000,3.848e-11,
-4900000,3.8522e-11,
-5000000,3.7497e-11,
-5100000,3.8768e-11,
-5200000,3.6719e-11,
-5300000,3.7056e-11,
-5400000,3.6747e-11,
-5500000,3.6379e-11,
-5600000,3.7254e-11,
-5700000,3.6423e-11,
-5800000,3.6476e-11,
-5900000,3.4321e-11,
-6000000,3.4984e-11,
-5950000,3.4408e-11,
-5850000,3.5417e-11,
-5750000,3.5249e-11,
-5650000,3.6066e-11,
-5550000,3.6846e-11,
-5450000,3.6094e-11,
-5350000,3.576e-11,
-5250000,3.639e-11,
-5150000,3.6047e-11,
-5050000,3.8022e-11,
-4950000,3.7914e-11,
-4850000,3.8035e-11,
-4750000,3.8466e-11,
-4650000,3.8242e-11,
-4550000,4.0184e-11,
-4450000,4.0505e-11,
-4350000,4.1217e-11,
-4250000,4.0545e-11,
-4150000,3.9903e-11,
-4050000,4.1814e-11,
-3950000,4.1492e-11,
-3850000,4.2122e-11,
-3750000,4.3187e-11,
-3650000,4.3316e-11,
-3550000,4.4027e-11,
-3450000,4.4457e-11,
-3350000,4.3992e-11,
-3250000,4.5405e-11,
-3150000,4.5719e-11,
-3050000,4.7305e-11,
-2950000,4.7322e-11,
-2850000,4.8142e-11,
-2750000,4.898e-11,
-2650000,4.9317e-11,
-2550000,5.0374e-11,
-2450000,5.1628e-11,
-2350000,5.1628e-11,
-2250000,5.2907e-11,
-2150000,5.3439e-11,
-2050000,5.5554e-11,
-1950000,5.6662e-11,
-1850000,5.7348e-11,
-1750000,5.7959e-11,
-1650000,5.9266e-11,
-1550000,6.1264e-11,
-1450000,6.2042e-11,
-1350000,6.3146e-11,
-1250000,6.4596e-11,
-1150000,6.6022e-11,
-1050000,6.6597e-11,
-950000,6.7828e-11,
-850000,6.8977e-11,
-750000,7.0326e-11,
-650000,7.207e-11,
-550000,7.3684e-11,
-450000,7.5534e-11,
-350000,7.6076e-11,
-250000,7.7735e-11,
-150000,7.9291e-11,
-50000,8.0209e-11,
50000,8.2607e-11,
150000,8.397e-11,
250000,8.5458e-11,
350000,8.6906e-11,
450000,8.811e-11,
