General parameters:
Start time: 2023              8             22              0             57      33.048825
Finish time: 2023              8             22              1              3      28.636807
Dwell time (ms): 3000.000000
Source chamber pressure: 2.00e+3
Differential chamber pressure: 7.97e-07
Sample chamber pressure: 3.79e-08
Example position (nm): -3811180.769509,182588.415319,-1000000.000000
Rotation angle (udeg): 65000525.000000
==========
Instrument status: 
0:Data Directory:/icon/data/2023_08_MoS2_5um_hbn_sub/
1:Sample:MoS2
2:Comments:no
3:PinholePlate:#C13
4:z_Zero:4200
5:Operator:djw77/nav31/kw570
==========
zscan inputs: 
z_sep:50000
z_range:200000 -5000000
data_path:/icon/data/2023_08_MoS2_5um_hbn_sub/
example_pos:-3811180.7695      182588.41532          -1000000
N_dwell:200
sampling_period:15
make_plots:0
m1:0.98976
m2:-0.0073571
==========
Detector params:
Sampling period (ms): 15.000000
N dwell: 200.000000
Filament current (A): 1.540000
Filament emission (mA): 1.751040
Solenoid current (A): NaN
Solenoid shim current (A): NaN
Lens params:
0  685
1  300
2  125
3      -0.002
4       -0.01
5       0.012
6         0.8
7         2.1
8         2.8
9  3000
10  1450
11         0.85
12   0
==========
Data:
z(nm),I(A)
200000,4.0383e-11,
100000,3.9388e-11,
0,4.0238e-11,
-100000,4.0026e-11,
-200000,4.0087e-11,
-300000,4.0389e-11,
-400000,3.9918e-11,
-500000,4.1715e-11,
-600000,4.188e-11,
-700000,4.2581e-11,
-800000,4.2756e-11,
-900000,4.3615e-11,
-1000000,4.4408e-11,
-1100000,4.3693e-11,
-1200000,4.4276e-11,
-1300000,4.4256e-11,
-1400000,4.4713e-11,
-1500000,4.5008e-11,
-1600000,4.5858e-11,
-1700000,4.5938e-11,
-1800000,4.622e-11,
-1900000,4.6526e-11,
-2000000,4.5161e-11,
-2100000,4.5318e-11,
-2200000,4.5505e-11,
-2300000,4.3958e-11,
-2400000,4.4096e-11,
-2500000,4.3915e-11,
-2600000,4.3587e-11,
-2700000,4.2722e-11,
-2800000,4.3584e-11,
-2900000,4.2326e-11,
-3000000,4.0949e-11,
-3100000,4.0204e-11,
-3200000,4.0672e-11,
-3300000,3.9579e-11,
-3400000,3.8386e-11,
-3500000,3.8585e-11,
-3600000,3.8295e-11,
-3700000,3.7231e-11,
-3800000,3.5952e-11,
-3900000,3.5319e-11,
-4000000,3.5253e-11,
-4100000,3.4409e-11,
-4200000,3.3781e-11,
-4300000,3.3412e-11,
-4400000,3.3342e-11,
-4500000,3.1399e-11,
-4600000,3.1267e-11,
-4700000,3.0846e-11,
-4800000,3.0001e-11,
-4900000,2.9398e-11,
-5000000,2.934e-11,
-4950000,2.9212e-11,
-4850000,2.9842e-11,
-4750000,3.0904e-11,
-4650000,3.1253e-11,
-4550000,3.14e-11,
-4450000,3.2346e-11,
-4350000,3.321e-11,
-4250000,3.2993e-11,
-4150000,3.3708e-11,
-4050000,3.4901e-11,
-3950000,3.5991e-11,
-3850000,3.6085e-11,
-3750000,3.6684e-11,
-3650000,3.7298e-11,
-3550000,3.726e-11,
-3450000,3.9123e-11,
-3350000,3.8535e-11,
-3250000,3.984e-11,
-3150000,4.0315e-11,
-3050000,4.0906e-11,
-2950000,4.2337e-11,
-2850000,4.2429e-11,
-2750000,4.3488e-11,
-2650000,4.3168e-11,
-2550000,4.3214e-11,
-2450000,4.4724e-11,
-2350000,4.3942e-11,
-2250000,4.609e-11,
-2150000,4.5796e-11,
-2050000,4.4765e-11,
-1950000,4.6099e-11,
-1850000,4.5668e-11,
-1750000,4.6065e-11,
-1650000,4.6468e-11,
-1550000,4.5071e-11,
-1450000,4.5485e-11,
-1350000,4.4752e-11,
-1250000,4.5034e-11,
-1150000,4.4938e-11,
-1050000,4.4988e-11,
-950000,4.354e-11,
-850000,4.2575e-11,
-750000,4.2821e-11,
-650000,4.1623e-11,
-550000,4.1995e-11,
-450000,4.1205e-11,
-350000,4.0618e-11,
-250000,3.9763e-11,
-150000,3.9681e-11,
-50000,4.0074e-11,
50000,4.0177e-11,
150000,3.9622e-11,
