General parameters:
Start time: 2023              8             21             21             39      27.786294
Finish time: 2023              8             21             21             45      26.526508
Dwell time (ms): 3000.000000
Source chamber pressure: 2.00e+3
Differential chamber pressure: 7.97e-07
Sample chamber pressure: 3.84e-08
Example position (nm): -3612021.665429,280775.168585,-1000000.000000
Rotation angle (udeg): 80000185.000000
==========
Instrument status: 
0:Data Directory:/icon/data/2023_08_MoS2_5um_hbn_sub/
1:Sample:MoS2
2:Comments:no
3:PinholePlate:#C13
4:z_Zero:4200
5:Operator:djw77/nav31/kw570
==========
zscan inputs: 
z_sep:50000
z_range:200000 -5000000
data_path:/icon/data/2023_08_MoS2_5um_hbn_sub/
example_pos:-3612021.6654      280775.16859          -1000000
N_dwell:200
sampling_period:15
make_plots:0
m1:0.98976
m2:-0.0073571
==========
Detector params:
Sampling period (ms): 15.000000
N dwell: 200.000000
Filament current (A): 1.540000
Filament emission (mA): 1.738044
Solenoid current (A): NaN
Solenoid shim current (A): NaN
Lens params:
0  685
1  300
2  125
3      -0.002
4       -0.01
5       0.012
6         0.8
7         2.1
8         2.8
9  3000
10  1450
11         0.85
12   0
==========
Data:
z(nm),I(A)
200000,4.278e-11,
100000,4.3716e-11,
0,4.1917e-11,
-100000,4.3612e-11,
-200000,4.2101e-11,
-300000,4.384e-11,
-400000,4.4999e-11,
-500000,4.4958e-11,
-600000,4.6041e-11,
-700000,4.6417e-11,
-800000,4.7257e-11,
-900000,4.7189e-11,
-1000000,4.7449e-11,
-1100000,4.6894e-11,
-1200000,4.9006e-11,
-1300000,4.8501e-11,
-1400000,4.8757e-11,
-1500000,4.8462e-11,
-1600000,4.9027e-11,
-1700000,4.8478e-11,
-1800000,4.9228e-11,
-1900000,4.8883e-11,
-2000000,4.9577e-11,
-2100000,4.9288e-11,
-2200000,4.7981e-11,
-2300000,4.8679e-11,
-2400000,4.7188e-11,
-2500000,4.7194e-11,
-2600000,4.7058e-11,
-2700000,4.5894e-11,
-2800000,4.5683e-11,
-2900000,4.4397e-11,
-3000000,4.4778e-11,
-3100000,4.4234e-11,
-3200000,4.3741e-11,
-3300000,4.315e-11,
-3400000,4.2518e-11,
-3500000,4.1606e-11,
-3600000,4.036e-11,
-3700000,3.9489e-11,
-3800000,3.9372e-11,
-3900000,3.835e-11,
-4000000,3.7362e-11,
-4100000,3.6945e-11,
-4200000,3.6177e-11,
-4300000,3.493e-11,
-4400000,3.475e-11,
-4500000,3.3644e-11,
-4600000,3.274e-11,
-4700000,3.1934e-11,
-4800000,3.1547e-11,
-4900000,3.0757e-11,
-5000000,3.0056e-11,
-4950000,3.0763e-11,
-4850000,3.0951e-11,
-4750000,3.1961e-11,
-4650000,3.2082e-11,
-4550000,3.3878e-11,
-4450000,3.3951e-11,
-4350000,3.5741e-11,
-4250000,3.5406e-11,
-4150000,3.5225e-11,
-4050000,3.6736e-11,
-3950000,3.6979e-11,
-3850000,3.8072e-11,
-3750000,3.847e-11,
-3650000,4.0415e-11,
-3550000,4.1204e-11,
-3450000,4.1447e-11,
-3350000,4.3115e-11,
-3250000,4.404e-11,
-3150000,4.4084e-11,
-3050000,4.402e-11,
-2950000,4.4819e-11,
-2850000,4.5426e-11,
-2750000,4.7008e-11,
-2650000,4.742e-11,
-2550000,4.751e-11,
-2450000,4.7706e-11,
-2350000,4.7846e-11,
-2250000,4.9414e-11,
-2150000,4.8612e-11,
-2050000,4.8418e-11,
-1950000,4.9746e-11,
-1850000,4.9177e-11,
-1750000,4.9955e-11,
-1650000,4.8801e-11,
-1550000,4.7883e-11,
-1450000,4.9686e-11,
-1350000,4.8676e-11,
-1250000,4.8989e-11,
-1150000,4.8354e-11,
-1050000,4.953e-11,
-950000,4.9346e-11,
-850000,4.8369e-11,
-750000,4.6599e-11,
-650000,4.5087e-11,
-550000,4.5478e-11,
-450000,4.4783e-11,
-350000,4.3768e-11,
-250000,4.4124e-11,
-150000,4.2236e-11,
-50000,4.3084e-11,
50000,4.2503e-11,
150000,4.3377e-11,
