General parameters:
Start time: 2023              8             21             21              9      26.761038
Finish time: 2023              8             21             21             15      21.753937
Dwell time (ms): 3000.000000
Source chamber pressure: 2.00e+3
Differential chamber pressure: 7.97e-07
Sample chamber pressure: 3.84e-08
Example position (nm): -3779879.585143,202524.555177,-1000000.000000
Rotation angle (udeg): 67500205.000000
==========
Instrument status: 
0:Data Directory:/icon/data/2023_08_MoS2_5um_hbn_sub/
1:Sample:MoS2
2:Comments:no
3:PinholePlate:#C13
4:z_Zero:4200
5:Operator:djw77/nav31/kw570
==========
zscan inputs: 
z_sep:50000
z_range:200000 -5000000
data_path:/icon/data/2023_08_MoS2_5um_hbn_sub/
example_pos:-3779879.5851      202524.55518          -1000000
N_dwell:200
sampling_period:15
make_plots:0
m1:0.98976
m2:-0.0073571
==========
Detector params:
Sampling period (ms): 15.000000
N dwell: 200.000000
Filament current (A): 1.540000
Filament emission (mA): 1.733940
Solenoid current (A): NaN
Solenoid shim current (A): NaN
Lens params:
0  685
1  300
2  125
3      -0.002
4       -0.01
5       0.012
6         0.8
7         2.1
8         2.8
9  3000
10  1450
11         0.85
12   0
==========
Data:
z(nm),I(A)
200000,4.292e-11,
100000,4.2609e-11,
0,4.2107e-11,
-100000,4.3366e-11,
-200000,4.2416e-11,
-300000,4.2181e-11,
-400000,4.3613e-11,
-500000,4.2944e-11,
-600000,4.5763e-11,
-700000,4.4394e-11,
-800000,4.6141e-11,
-900000,4.6379e-11,
-1000000,4.6936e-11,
-1100000,4.5853e-11,
-1200000,4.7183e-11,
-1300000,4.7143e-11,
-1400000,4.7581e-11,
-1500000,4.7718e-11,
-1600000,4.9395e-11,
-1700000,4.8977e-11,
-1800000,4.9192e-11,
-1900000,4.8551e-11,
-2000000,4.7682e-11,
-2100000,4.8035e-11,
-2200000,4.7894e-11,
-2300000,4.8077e-11,
-2400000,4.6713e-11,
-2500000,4.8264e-11,
-2600000,4.5796e-11,
-2700000,4.6347e-11,
-2800000,4.5823e-11,
-2900000,4.4903e-11,
-3000000,4.5124e-11,
-3100000,4.3494e-11,
-3200000,4.2968e-11,
-3300000,4.2111e-11,
-3400000,4.1497e-11,
-3500000,4.1483e-11,
-3600000,3.9108e-11,
-3700000,3.8686e-11,
-3800000,3.9156e-11,
-3900000,3.7678e-11,
-4000000,3.7566e-11,
-4100000,3.672e-11,
-4200000,3.4545e-11,
-4300000,3.5534e-11,
-4400000,3.5214e-11,
-4500000,3.3366e-11,
-4600000,3.3436e-11,
-4700000,3.2895e-11,
-4800000,3.23e-11,
-4900000,3.2137e-11,
-5000000,3.1036e-11,
-4950000,3.156e-11,
-4850000,3.1567e-11,
-4750000,3.3046e-11,
-4650000,3.3278e-11,
-4550000,3.3933e-11,
-4450000,3.4353e-11,
-4350000,3.4188e-11,
-4250000,3.5484e-11,
-4150000,3.6092e-11,
-4050000,3.6908e-11,
-3950000,3.8077e-11,
-3850000,3.8145e-11,
-3750000,3.9476e-11,
-3650000,3.7809e-11,
-3550000,4.0384e-11,
-3450000,4.1272e-11,
-3350000,4.2218e-11,
-3250000,4.2189e-11,
-3150000,4.2894e-11,
-3050000,4.4584e-11,
-2950000,4.4264e-11,
-2850000,4.4706e-11,
-2750000,4.5293e-11,
-2650000,4.5179e-11,
-2550000,4.7213e-11,
-2450000,4.7084e-11,
-2350000,4.6781e-11,
-2250000,4.8138e-11,
-2150000,4.8615e-11,
-2050000,4.8988e-11,
-1950000,4.8147e-11,
-1850000,4.7882e-11,
-1750000,4.7952e-11,
-1650000,4.7479e-11,
-1550000,4.8317e-11,
-1450000,4.7518e-11,
-1350000,4.8656e-11,
-1250000,4.7201e-11,
-1150000,4.7457e-11,
-1050000,4.7049e-11,
-950000,4.686e-11,
-850000,4.6039e-11,
-750000,4.5574e-11,
-650000,4.4568e-11,
-550000,4.4617e-11,
-450000,4.2581e-11,
-350000,4.3763e-11,
-250000,4.2622e-11,
-150000,4.2301e-11,
-50000,4.2411e-11,
50000,4.2323e-11,
150000,4.2123e-11,
