General parameters:
Start time: 2023              8             28              5             46      15.305387
Finish time: 2023              8             28              5             52      12.865454
Dwell time (ms): 3000.000000
Source chamber pressure: 2.00e+3
Differential chamber pressure: 6.31e-07
Sample chamber pressure: 3.62e-08
Example position (nm): -2656483.133934,78049.014517,-1000000.000000
Rotation angle (udeg): 142500080.000000
==========
Instrument status: 
0:Data Directory:/icon/data/2023_08_MoS2_5um_hbn_sub/
1:Sample:MoS2
2:Comments:no
3:PinholePlate:#C13
4:z_Zero:4200
5:Operator:djw77/nav31/kw570
==========
zscan inputs: 
z_sep:50000
z_range:200000 -5000000
data_path:/icon/data/2023_08_MoS2_5um_hbn_sub/
example_pos:-2656483.1339      78049.014517          -1000000
N_dwell:200
sampling_period:15
make_plots:1
m1:0.98976
m2:-0.0073571
==========
Detector params:
Sampling period (ms): 15.000000
N dwell: 200.000000
Filament current (A): 1.540000
Filament emission (mA): 1.900836
Solenoid current (A): NaN
Solenoid shim current (A): NaN
Lens params:
0  685
1  300
2  125
3      -0.002
4       -0.01
5       0.012
6         0.8
7         2.1
8         2.8
9  3000
10  1450
11         0.85
12   0
==========
Data:
z(nm),I(A)
200000,7.801e-11,
100000,7.2366e-11,
0,6.8289e-11,
-100000,6.5018e-11,
-200000,6.1558e-11,
-300000,6.1174e-11,
-400000,6.2842e-11,
-500000,6.8373e-11,
-600000,7.8373e-11,
-700000,1.0175e-10,
-800000,1.2083e-10,
-900000,1.1328e-10,
-1000000,8.8793e-11,
-1100000,7.2188e-11,
-1200000,6.3818e-11,
-1300000,5.8916e-11,
-1400000,5.6433e-11,
-1500000,5.5163e-11,
-1600000,5.541e-11,
-1700000,5.4327e-11,
-1800000,5.4634e-11,
-1900000,5.4406e-11,
-2000000,5.5152e-11,
-2100000,6.045e-11,
-2200000,6.5485e-11,
-2300000,6.8995e-11,
-2400000,6.6074e-11,
-2500000,6.2058e-11,
-2600000,5.6457e-11,
-2700000,5.3115e-11,
-2800000,5.2252e-11,
-2900000,5.5643e-11,
-3000000,6.1914e-11,
-3100000,7.046e-11,
-3200000,7.4846e-11,
-3300000,7.7545e-11,
-3400000,7.4811e-11,
-3500000,6.8396e-11,
-3600000,5.8273e-11,
-3700000,5.0014e-11,
-3800000,4.3067e-11,
-3900000,4.0299e-11,
-4000000,3.8432e-11,
-4100000,3.7739e-11,
-4200000,3.7313e-11,
-4300000,3.6368e-11,
-4400000,3.6997e-11,
-4500000,3.7482e-11,
-4600000,3.5947e-11,
-4700000,3.5293e-11,
-4800000,3.3104e-11,
-4900000,3.2799e-11,
-5000000,3.1614e-11,
-4950000,3.1201e-11,
-4850000,3.2975e-11,
-4750000,3.409e-11,
-4650000,3.5101e-11,
-4550000,3.541e-11,
-4450000,3.7541e-11,
-4350000,3.7199e-11,
-4250000,3.6095e-11,
-4150000,3.6847e-11,
-4050000,3.7393e-11,
-3950000,3.7605e-11,
-3850000,4.0391e-11,
-3750000,4.4218e-11,
-3650000,5.2117e-11,
-3550000,6.3305e-11,
-3450000,7.1864e-11,
-3350000,7.5959e-11,
-3250000,7.8477e-11,
-3150000,7.4132e-11,
-3050000,6.7607e-11,
-2950000,5.8825e-11,
-2850000,5.4989e-11,
-2750000,5.3623e-11,
-2650000,5.461e-11,
-2550000,5.7556e-11,
-2450000,6.4557e-11,
-2350000,6.9487e-11,
-2250000,6.8041e-11,
-2150000,6.3804e-11,
-2050000,5.8691e-11,
-1950000,5.4652e-11,
-1850000,5.326e-11,
-1750000,5.3611e-11,
-1650000,5.3909e-11,
-1550000,5.3633e-11,
-1450000,5.4608e-11,
-1350000,5.5423e-11,
-1250000,5.8751e-11,
-1150000,6.5861e-11,
-1050000,7.7694e-11,
-950000,9.7234e-11,
-850000,1.1866e-10,
-750000,1.1581e-10,
-650000,9.0386e-11,
-550000,7.4903e-11,
-450000,6.538e-11,
-350000,6.2909e-11,
-250000,6.1149e-11,
-150000,6.362e-11,
-50000,6.5637e-11,
50000,6.9944e-11,
150000,7.3346e-11,
