General parameters:
Start time: 2023              8             29              7              1      32.001651
Finish time: 2023              8             29              7              8      35.799811
Dwell time (ms): 3000.000000
Source chamber pressure: 2.00e+3
Differential chamber pressure: 6.02e-07
Sample chamber pressure: 3.62e-08
Example position (nm): -2626000.000000,7500.000000,-1000000.000000
Rotation angle (udeg): 149999905.000000
==========
Instrument status: 
0:Data Directory:/icon/data/2023_08_MoS2_5um_hbn_sub/
1:Sample:MoS2
2:Comments:no
3:PinholePlate:#C13
4:z_Zero:4200
5:Operator:djw77/nav31/kw570
==========
zscan inputs: 
z_sep:50000
z_range:200000 -6000000
data_path:/icon/data/2023_08_MoS2_5um_hbn_sub/
example_pos:-2626000     7500 -1000000
N_dwell:200
sampling_period:15
make_plots:1
m1:0.98976
m2:-0.0073571
==========
Detector params:
Sampling period (ms): 15.000000
N dwell: 200.000000
Filament current (A): 1.540000
Filament emission (mA): 1.926828
Solenoid current (A): NaN
Solenoid shim current (A): NaN
Lens params:
0  685
1  300
2  125
3      -0.002
4       -0.01
5       0.012
6         0.8
7         2.1
8         2.8
9  3000
10  1450
11         0.85
12   0
==========
Data:
z(nm),I(A)
200000,6.204e-11,
100000,6.4595e-11,
0,6.3579e-11,
-100000,6.387e-11,
-200000,6.4119e-11,
-300000,6.4839e-11,
-400000,6.4977e-11,
-500000,6.5271e-11,
-600000,6.5459e-11,
-700000,6.6571e-11,
-800000,6.6437e-11,
-900000,6.6411e-11,
-1000000,6.6144e-11,
-1100000,6.8418e-11,
-1200000,6.7417e-11,
-1300000,6.6466e-11,
-1400000,6.6811e-11,
-1500000,6.7884e-11,
-1600000,6.8215e-11,
-1700000,6.7628e-11,
-1800000,6.6871e-11,
-1900000,6.772e-11,
-2000000,6.8049e-11,
-2100000,6.6946e-11,
-2200000,6.5171e-11,
-2300000,6.6334e-11,
-2400000,6.4574e-11,
-2500000,6.4709e-11,
-2600000,6.3569e-11,
-2700000,6.229e-11,
-2800000,6.0726e-11,
-2900000,6.1768e-11,
-3000000,6.0454e-11,
-3100000,6.1612e-11,
-3200000,5.8923e-11,
-3300000,5.7467e-11,
-3400000,5.7535e-11,
-3500000,5.5518e-11,
-3600000,5.4769e-11,
-3700000,5.3883e-11,
-3800000,5.3098e-11,
-3900000,5.1486e-11,
-4000000,5.1903e-11,
-4100000,5.1059e-11,
-4200000,4.9149e-11,
-4300000,4.8643e-11,
-4400000,4.771e-11,
-4500000,4.7846e-11,
-4600000,4.5552e-11,
-4700000,4.5131e-11,
-4800000,4.4681e-11,
-4900000,4.3342e-11,
-5000000,4.2599e-11,
-5100000,4.344e-11,
-5200000,4.1699e-11,
-5300000,4.1527e-11,
-5400000,4.0787e-11,
-5500000,3.965e-11,
-5600000,3.9565e-11,
-5700000,3.9356e-11,
-5800000,3.849e-11,
-5900000,3.7342e-11,
-6000000,3.8277e-11,
-5950000,3.8376e-11,
-5850000,3.8127e-11,
-5750000,3.8302e-11,
-5650000,3.9395e-11,
-5550000,3.9672e-11,
-5450000,3.9632e-11,
-5350000,4.1659e-11,
-5250000,4.2034e-11,
-5150000,4.2443e-11,
-5050000,4.2621e-11,
-4950000,4.2795e-11,
-4850000,4.3773e-11,
-4750000,4.5203e-11,
-4650000,4.5643e-11,
-4550000,4.6497e-11,
-4450000,4.7411e-11,
-4350000,4.8277e-11,
-4250000,4.869e-11,
-4150000,5.0288e-11,
-4050000,5.0039e-11,
-3950000,5.1699e-11,
-3850000,5.1069e-11,
-3750000,5.3306e-11,
-3650000,5.4306e-11,
-3550000,5.5965e-11,
-3450000,5.6433e-11,
-3350000,5.6685e-11,
-3250000,5.8641e-11,
-3150000,5.9204e-11,
-3050000,5.8851e-11,
-2950000,6.0462e-11,
-2850000,6.1609e-11,
-2750000,6.2663e-11,
-2650000,6.3067e-11,
-2550000,6.2972e-11,
-2450000,6.4961e-11,
-2350000,6.4233e-11,
-2250000,6.56e-11,
-2150000,6.6003e-11,
-2050000,6.5738e-11,
-1950000,6.7924e-11,
-1850000,6.7651e-11,
-1750000,6.6002e-11,
-1650000,6.7337e-11,
-1550000,6.709e-11,
-1450000,6.7039e-11,
-1350000,6.7314e-11,
-1250000,6.7956e-11,
-1150000,6.6251e-11,
-1050000,6.6414e-11,
-950000,6.7341e-11,
-850000,6.5499e-11,
-750000,6.5266e-11,
-650000,6.5726e-11,
-550000,6.6493e-11,
-450000,6.4942e-11,
-350000,6.4566e-11,
-250000,6.4112e-11,
-150000,6.4845e-11,
-50000,6.2972e-11,
50000,6.3881e-11,
150000,6.3152e-11,
