General parameters:
Start time: 2023              8             21             16             48      48.364106
Finish time: 2023              8             21             16             54      43.172031
Dwell time (ms): 3000.000000
Source chamber pressure: 2.00e+3
Differential chamber pressure: 7.97e-07
Sample chamber pressure: 3.79e-08
Example position (nm): -2968802.415307,225509.275361,-1000000.000000
Rotation angle (udeg): 125000055.000000
==========
Instrument status: 
0:Data Directory:/icon/data/2023_08_MoS2_5um_hbn_sub/
1:Sample:MoS2
2:Comments:no
3:PinholePlate:#C13
4:z_Zero:4200
5:Operator:djw77/nav31/kw570
==========
zscan inputs: 
z_sep:50000
z_range:200000 -5000000
data_path:/icon/data/2023_08_MoS2_5um_hbn_sub/
example_pos:-2968802.4153      225509.27536          -1000000
N_dwell:200
sampling_period:15
make_plots:0
m1:0.98976
m2:-0.0073571
==========
Detector params:
Sampling period (ms): 15.000000
N dwell: 200.000000
Filament current (A): 1.540000
Filament emission (mA): 1.740096
Solenoid current (A): NaN
Solenoid shim current (A): NaN
Lens params:
0  685
1  300
2  125
3      -0.002
4       -0.01
5       0.012
6         0.8
7         2.1
8         2.8
9  3000
10  1450
11         0.85
12   0
==========
Data:
z(nm),I(A)
200000,4.5161e-11,
100000,4.5495e-11,
0,4.6522e-11,
-100000,4.6296e-11,
-200000,4.5941e-11,
-300000,4.6925e-11,
-400000,4.7281e-11,
-500000,4.8063e-11,
-600000,4.7086e-11,
-700000,4.8233e-11,
-800000,4.7902e-11,
-900000,4.8643e-11,
-1000000,4.8319e-11,
-1100000,4.8166e-11,
-1200000,4.944e-11,
-1300000,4.8779e-11,
-1400000,4.8801e-11,
-1500000,4.9632e-11,
-1600000,5.0342e-11,
-1700000,4.9201e-11,
-1800000,4.9339e-11,
-1900000,4.862e-11,
-2000000,4.8487e-11,
-2100000,4.7496e-11,
-2200000,4.7966e-11,
-2300000,4.7932e-11,
-2400000,4.6678e-11,
-2500000,4.618e-11,
-2600000,4.4894e-11,
-2700000,4.5522e-11,
-2800000,4.5406e-11,
-2900000,4.4869e-11,
-3000000,4.303e-11,
-3100000,4.3046e-11,
-3200000,4.2307e-11,
-3300000,4.1991e-11,
-3400000,4.0796e-11,
-3500000,3.9806e-11,
-3600000,3.9245e-11,
-3700000,3.7688e-11,
-3800000,3.7495e-11,
-3900000,3.7951e-11,
-4000000,3.6927e-11,
-4100000,3.5607e-11,
-4200000,3.5161e-11,
-4300000,3.4051e-11,
-4400000,3.3734e-11,
-4500000,3.2616e-11,
-4600000,3.3358e-11,
-4700000,3.2176e-11,
-4800000,3.1189e-11,
-4900000,3.1414e-11,
-5000000,3.1253e-11,
-4950000,3.1083e-11,
-4850000,3.0948e-11,
-4750000,3.1639e-11,
-4650000,3.1886e-11,
-4550000,3.2986e-11,
-4450000,3.3677e-11,
-4350000,3.4105e-11,
-4250000,3.5819e-11,
-4150000,3.5109e-11,
-4050000,3.6206e-11,
-3950000,3.6858e-11,
-3850000,3.7952e-11,
-3750000,3.8062e-11,
-3650000,3.8982e-11,
-3550000,4.0579e-11,
-3450000,4.1574e-11,
-3350000,4.1475e-11,
-3250000,4.0972e-11,
-3150000,4.313e-11,
-3050000,4.3614e-11,
-2950000,4.3299e-11,
-2850000,4.4056e-11,
-2750000,4.5532e-11,
-2650000,4.6741e-11,
-2550000,4.6198e-11,
-2450000,4.6759e-11,
-2350000,4.6981e-11,
-2250000,4.7588e-11,
-2150000,4.7875e-11,
-2050000,4.8412e-11,
-1950000,4.8647e-11,
-1850000,4.8291e-11,
-1750000,5.0729e-11,
-1650000,4.9229e-11,
-1550000,4.83e-11,
-1450000,4.8497e-11,
-1350000,4.7994e-11,
-1250000,4.9067e-11,
-1150000,4.9052e-11,
-1050000,4.8103e-11,
-950000,4.9226e-11,
-850000,4.8098e-11,
-750000,4.8727e-11,
-650000,4.6961e-11,
-550000,4.7368e-11,
-450000,4.7516e-11,
-350000,4.6867e-11,
-250000,4.7816e-11,
-150000,4.7084e-11,
-50000,4.5748e-11,
50000,4.4549e-11,
150000,4.6219e-11,
