General parameters:
Start time: 2023              8             19             16             58      13.440884
Finish time: 2023              8             19             17              4      12.647796
Dwell time (ms): 3000.000000
Source chamber pressure: 2.00e+3
Differential chamber pressure: 7.98e-07
Sample chamber pressure: 3.79e-08
Example position (nm): -2960261.440960,228202.924778,-1000000.000000
Rotation angle (udeg): 122499915.000000
==========
Instrument status: 
0:Data Directory:/icon/data/2023_08_MoS2_5um_hbn_sub/
1:Sample:MoS2
2:Comments:no
3:PinholePlate:#C13
4:z_Zero:4200
5:Operator:djw77/nav31/kw570
==========
zscan inputs: 
z_sep:50000
z_range:200000 -5000000
data_path:/icon/data/2023_08_MoS2_5um_hbn_sub/
example_pos:-2960261.441      228202.92478          -1000000
N_dwell:200
sampling_period:15
make_plots:0
m1:0.98976
m2:-0.0073571
==========
Detector params:
Sampling period (ms): 15.000000
N dwell: 200.000000
Filament current (A): 1.540000
Filament emission (mA): 1.693926
Solenoid current (A): NaN
Solenoid shim current (A): NaN
Lens params:
0  685
1  300
2  125
3      -0.002
4       -0.01
5       0.012
6         0.8
7         2.1
8         2.8
9  3000
10  1450
11         0.85
12   0
==========
Data:
z(nm),I(A)
200000,5.2718e-11,
100000,5.4175e-11,
0,5.2572e-11,
-100000,5.1868e-11,
-200000,5.073e-11,
-300000,5.2562e-11,
-400000,5.1812e-11,
-500000,5.5013e-11,
-600000,6.3615e-11,
-700000,7.5868e-11,
-800000,7.9686e-11,
-900000,6.7292e-11,
-1000000,6.7843e-11,
-1100000,6.4918e-11,
-1200000,5.9505e-11,
-1300000,5.6958e-11,
-1400000,5.6314e-11,
-1500000,6.1338e-11,
-1600000,7.503e-11,
-1700000,8.7615e-11,
-1800000,9.1878e-11,
-1900000,8.69e-11,
-2000000,7.0764e-11,
-2100000,5.7812e-11,
-2200000,5.4935e-11,
-2300000,5.463e-11,
-2400000,6.2721e-11,
-2500000,7.4806e-11,
-2600000,7.8968e-11,
-2700000,8.2331e-11,
-2800000,7.7066e-11,
-2900000,7.4762e-11,
-3000000,6.5482e-11,
-3100000,5.3677e-11,
-3200000,4.6317e-11,
-3300000,4.205e-11,
-3400000,4.123e-11,
-3500000,4.4436e-11,
-3600000,4.6185e-11,
-3700000,4.9652e-11,
-3800000,4.8493e-11,
-3900000,4.4392e-11,
-4000000,3.7523e-11,
-4100000,3.6813e-11,
-4200000,3.6278e-11,
-4300000,3.4415e-11,
-4400000,3.2807e-11,
-4500000,3.2004e-11,
-4600000,3.0892e-11,
-4700000,3.0221e-11,
-4800000,3.0457e-11,
-4900000,2.9604e-11,
-5000000,2.8945e-11,
-4950000,2.9932e-11,
-4850000,2.9866e-11,
-4750000,3.1044e-11,
-4650000,3.124e-11,
-4550000,3.1577e-11,
-4450000,3.2241e-11,
-4350000,3.4069e-11,
-4250000,3.4944e-11,
-4150000,3.7349e-11,
-4050000,3.823e-11,
-3950000,4.0668e-11,
-3850000,4.5359e-11,
-3750000,4.8245e-11,
-3650000,4.7131e-11,
-3550000,4.5089e-11,
-3450000,4.1999e-11,
-3350000,4.1504e-11,
-3250000,4.3901e-11,
-3150000,4.7326e-11,
-3050000,5.7847e-11,
-2950000,7.2177e-11,
-2850000,8.2352e-11,
-2750000,8.5695e-11,
-2650000,8.0553e-11,
-2550000,8.1908e-11,
-2450000,6.9296e-11,
-2350000,5.8757e-11,
-2250000,5.5085e-11,
-2150000,5.4555e-11,
-2050000,6.0938e-11,
-1950000,7.6162e-11,
-1850000,8.931e-11,
-1750000,8.9332e-11,
-1650000,8.1728e-11,
-1550000,6.785e-11,
-1450000,5.8843e-11,
-1350000,5.4411e-11,
-1250000,5.798e-11,
-1150000,6.233e-11,
-1050000,6.7317e-11,
-950000,6.7765e-11,
-850000,7.3432e-11,
-750000,8.028e-11,
-650000,7.1161e-11,
-550000,5.8181e-11,
-450000,5.284e-11,
-350000,5.1558e-11,
-250000,5.0625e-11,
-150000,5.0925e-11,
-50000,5.2301e-11,
50000,5.2759e-11,
150000,5.2439e-11,
