General parameters:
Start time: 2023              8             21             22             45      49.372668
Finish time: 2023              8             21             22             51      48.464709
Dwell time (ms): 3000.000000
Source chamber pressure: 2.00e+3
Differential chamber pressure: 7.98e-07
Sample chamber pressure: 3.78e-08
Example position (nm): -3209212.236089,315971.100370,-1000000.000000
Rotation angle (udeg): 107500040.000000
==========
Instrument status: 
0:Data Directory:/icon/data/2023_08_MoS2_5um_hbn_sub/
1:Sample:MoS2
2:Comments:no
3:PinholePlate:#C13
4:z_Zero:4200
5:Operator:djw77/nav31/kw570
==========
zscan inputs: 
z_sep:50000
z_range:200000 -5000000
data_path:/icon/data/2023_08_MoS2_5um_hbn_sub/
example_pos:-3209212.2361      315971.10037          -1000000
N_dwell:200
sampling_period:15
make_plots:0
m1:0.98976
m2:-0.0073571
==========
Detector params:
Sampling period (ms): 15.000000
N dwell: 200.000000
Filament current (A): 1.540000
Filament emission (mA): 1.741122
Solenoid current (A): NaN
Solenoid shim current (A): NaN
Lens params:
0  685
1  300
2  125
3      -0.002
4       -0.01
5       0.012
6         0.8
7         2.1
8         2.8
9  3000
10  1450
11         0.85
12   0
==========
Data:
z(nm),I(A)
200000,4.6397e-11,
100000,4.592e-11,
0,4.7383e-11,
-100000,4.6941e-11,
-200000,4.6034e-11,
-300000,4.6481e-11,
-400000,4.7223e-11,
-500000,4.8136e-11,
-600000,5.0963e-11,
-700000,5.2507e-11,
-800000,6.4959e-11,
-900000,7.5486e-11,
-1000000,7.0584e-11,
-1100000,6.2377e-11,
-1200000,5.5848e-11,
-1300000,5.1917e-11,
-1400000,5.0444e-11,
-1500000,5.1698e-11,
-1600000,5.3449e-11,
-1700000,5.3345e-11,
-1800000,5.2766e-11,
-1900000,4.9395e-11,
-2000000,4.8777e-11,
-2100000,4.869e-11,
-2200000,4.7208e-11,
-2300000,4.7955e-11,
-2400000,4.5813e-11,
-2500000,4.5631e-11,
-2600000,4.5307e-11,
-2700000,4.4755e-11,
-2800000,4.4806e-11,
-2900000,4.3563e-11,
-3000000,4.349e-11,
-3100000,4.169e-11,
-3200000,4.2373e-11,
-3300000,4.1509e-11,
-3400000,4.1142e-11,
-3500000,3.9406e-11,
-3600000,3.9779e-11,
-3700000,3.8033e-11,
-3800000,3.8368e-11,
-3900000,3.7216e-11,
-4000000,3.6015e-11,
-4100000,3.5063e-11,
-4200000,3.4579e-11,
-4300000,3.4083e-11,
-4400000,3.3427e-11,
-4500000,3.2547e-11,
-4600000,3.1838e-11,
-4700000,3.1874e-11,
-4800000,3.1017e-11,
-4900000,3.0499e-11,
-5000000,3.0437e-11,
-4950000,3.107e-11,
-4850000,3.0764e-11,
-4750000,3.1344e-11,
-4650000,3.2459e-11,
-4550000,3.1727e-11,
-4450000,3.3876e-11,
-4350000,3.3816e-11,
-4250000,3.4784e-11,
-4150000,3.5068e-11,
-4050000,3.5906e-11,
-3950000,3.5989e-11,
-3850000,3.6954e-11,
-3750000,3.8979e-11,
-3650000,3.8621e-11,
-3550000,4.0364e-11,
-3450000,4.0865e-11,
-3350000,4.1707e-11,
-3250000,4.2438e-11,
-3150000,4.2449e-11,
-3050000,4.2891e-11,
-2950000,4.2763e-11,
-2850000,4.4957e-11,
-2750000,4.427e-11,
-2650000,4.4946e-11,
-2550000,4.5401e-11,
-2450000,4.5958e-11,
-2350000,4.7465e-11,
-2250000,4.7355e-11,
-2150000,4.7644e-11,
-2050000,4.8674e-11,
-1950000,4.8477e-11,
-1850000,4.9786e-11,
-1750000,5.2188e-11,
-1650000,5.3757e-11,
-1550000,5.3164e-11,
-1450000,4.9989e-11,
-1350000,4.9675e-11,
-1250000,5.2485e-11,
-1150000,5.6429e-11,
-1050000,5.992e-11,
-950000,6.1413e-11,
-850000,6.6423e-11,
-750000,5.3232e-11,
-650000,5.161e-11,
-550000,4.8877e-11,
-450000,4.7705e-11,
-350000,4.6434e-11,
-250000,4.691e-11,
-150000,4.6167e-11,
-50000,4.6486e-11,
50000,4.6811e-11,
150000,4.5759e-11,
