General parameters:
Start time: 2023              9             21             13              5      42.622838
Finish time: 2023              9             21             13             14       46.37254
Dwell time (ms): 3750.000000
Source chamber pressure: Error-S
Differential chamber pressure: 7.99e-07
Sample chamber pressure: 3.58e-08
Example position (nm): -4590000.000000,228000.000000,-2700000.000000
Rotation angle (udeg): 125000105.000000
==========
Instrument status: 
0:Data Directory:/icon/data/2023_08_MoS2_5um_hbn_sub/
1:Sample:MoS2
2:Comments:no
3:PinholePlate:#C13
4:z_Zero:4200
5:Operator:djw77/nav31/kw570
==========
zscan inputs: 
z_sep:50000
z_range:500000 -6000000
data_path:/icon/data/2023_08_MoS2_5um_hbn_sub/
example_pos:-4590000   228000 -2700000
N_dwell:250
sampling_period:15
make_plots:1
m1:0.98976
m2:-0.0073571
==========
Detector params:
Sampling period (ms): 15.000000
N dwell: 250.000000
Filament current (A): 1.540000
Filament emission (mA): 3.041406
Solenoid current (A): NaN
Solenoid shim current (A): NaN
Lens params:
0  685
1  300
2  125
3      -0.002
4       -0.01
5       0.012
6         0.8
7         2.1
8         2.8
9  3000
10  1450
11         0.85
12   0
==========
Data:
z(nm),I(A)
500000,2.4672e-10,
400000,2.5674e-10,
300000,2.6937e-10,
200000,3.0565e-10,
100000,3.1954e-10,
0,3.3372e-10,
-100000,3.4277e-10,
-200000,3.5057e-10,
-300000,3.6049e-10,
-400000,3.6581e-10,
-500000,3.8625e-10,
-600000,3.8692e-10,
-700000,4.0315e-10,
-800000,4.1448e-10,
-900000,4.2003e-10,
-1000000,4.1718e-10,
-1100000,4.1029e-10,
-1200000,4.0225e-10,
-1300000,3.9713e-10,
-1400000,3.906e-10,
-1500000,3.8167e-10,
-1600000,3.7801e-10,
-1700000,3.7055e-10,
-1800000,3.6394e-10,
-1900000,3.5706e-10,
-2000000,3.5189e-10,
-2100000,3.4643e-10,
-2200000,3.4399e-10,
-2300000,3.4197e-10,
-2400000,3.4265e-10,
-2500000,3.4643e-10,
-2600000,3.4538e-10,
-2700000,3.4315e-10,
-2800000,3.3699e-10,
-2900000,3.2008e-10,
-3000000,3.0969e-10,
-3100000,2.9193e-10,
-3200000,2.7824e-10,
-3300000,2.6198e-10,
-3400000,2.5518e-10,
-3500000,2.5001e-10,
-3600000,2.3929e-10,
-3700000,2.3229e-10,
-3800000,2.2458e-10,
-3900000,2.2071e-10,
-4000000,2.1199e-10,
-4100000,1.992e-10,
-4200000,1.8942e-10,
-4300000,1.7885e-10,
-4400000,1.7088e-10,
-4500000,1.6359e-10,
-4600000,1.5581e-10,
-4700000,1.4898e-10,
-4800000,1.455e-10,
-4900000,1.4208e-10,
-5000000,1.406e-10,
-5100000,1.3553e-10,
-5200000,1.3453e-10,
-5300000,1.3194e-10,
-5400000,1.2948e-10,
-5500000,1.3038e-10,
-5600000,1.3114e-10,
-5700000,1.265e-10,
-5800000,1.2099e-10,
-5900000,1.1769e-10,
-6000000,1.1704e-10,
-5950000,1.1749e-10,
-5850000,1.1735e-10,
-5750000,1.2158e-10,
-5650000,1.2695e-10,
-5550000,1.3024e-10,
-5450000,1.3049e-10,
-5350000,1.3109e-10,
-5250000,1.3282e-10,
-5150000,1.327e-10,
-5050000,1.3643e-10,
-4950000,1.4134e-10,
-4850000,1.4422e-10,
-4750000,1.4809e-10,
-4650000,1.5254e-10,
-4550000,1.5879e-10,
-4450000,1.6737e-10,
-4350000,1.7481e-10,
-4250000,1.8225e-10,
-4150000,1.9439e-10,
-4050000,2.0456e-10,
-3950000,2.1491e-10,
-3850000,2.2119e-10,
-3750000,2.2702e-10,
-3650000,2.3402e-10,
-3550000,2.4597e-10,
-3450000,2.5133e-10,
-3350000,2.6012e-10,
-3250000,2.7282e-10,
-3150000,2.8427e-10,
-3050000,2.9644e-10,
-2950000,3.1192e-10,
-2850000,3.2293e-10,
-2750000,3.3384e-10,
-2650000,3.4156e-10,
-2550000,3.4233e-10,
-2450000,3.3987e-10,
-2350000,3.4192e-10,
-2250000,3.4099e-10,
-2150000,3.4051e-10,
-2050000,3.4611e-10,
-1950000,3.4798e-10,
-1850000,3.5281e-10,
-1750000,3.6275e-10,
-1650000,3.7069e-10,
-1550000,3.7689e-10,
-1450000,3.8302e-10,
-1350000,3.9255e-10,
-1250000,3.9659e-10,
-1150000,4.0645e-10,
-1050000,4.1417e-10,
-950000,4.1718e-10,
-850000,4.1411e-10,
-750000,4.0511e-10,
-650000,3.7831e-10,
-550000,3.7078e-10,
-450000,3.7006e-10,
-350000,3.4522e-10,
-250000,3.2257e-10,
-150000,3.2238e-10,
-50000,3.0626e-10,
50000,2.9272e-10,
150000,2.9828e-10,
250000,2.7636e-10,
350000,2.4441e-10,
450000,2.2613e-10,
