General parameters:
Start time: 2023              8             22             12              0      37.399652
Finish time: 2023              8             22             12              6      31.522974
Dwell time (ms): 3000.000000
Source chamber pressure: 2.00e+3
Differential chamber pressure: 7.97e-07
Sample chamber pressure: 3.84e-08
Example position (nm): -3652802.440566,201141.743654,-1000000.000000
Rotation angle (udeg): 72499785.000000
==========
Instrument status: 
0:Data Directory:/icon/data/2023_08_MoS2_5um_hbn_sub/
1:Sample:MoS2
2:Comments:no
3:PinholePlate:#C13
4:z_Zero:4200
5:Operator:djw77/nav31/kw570
==========
zscan inputs: 
z_sep:50000
z_range:200000 -5000000
data_path:/icon/data/2023_08_MoS2_5um_hbn_sub/
example_pos:-3652802.4406      201141.74365          -1000000
N_dwell:200
sampling_period:15
make_plots:0
m1:0.98976
m2:-0.0073571
==========
Detector params:
Sampling period (ms): 15.000000
N dwell: 200.000000
Filament current (A): 1.540000
Filament emission (mA): 1.743516
Solenoid current (A): NaN
Solenoid shim current (A): NaN
Lens params:
0  685
1  300
2  125
3      -0.002
4       -0.01
5       0.012
6         0.8
7         2.1
8         2.8
9  3000
10  1450
11         0.85
12   0
==========
Data:
z(nm),I(A)
200000,4.2347e-11,
100000,4.226e-11,
0,4.1457e-11,
-100000,4.2213e-11,
-200000,4.2351e-11,
-300000,4.1455e-11,
-400000,4.2288e-11,
-500000,4.2784e-11,
-600000,4.3679e-11,
-700000,4.4815e-11,
-800000,4.5102e-11,
-900000,4.4695e-11,
-1000000,4.6353e-11,
-1100000,4.6112e-11,
-1200000,4.581e-11,
-1300000,4.7051e-11,
-1400000,4.7048e-11,
-1500000,4.6683e-11,
-1600000,4.6936e-11,
-1700000,4.7918e-11,
-1800000,4.8443e-11,
-1900000,4.739e-11,
-2000000,4.7694e-11,
-2100000,4.7126e-11,
-2200000,4.8489e-11,
-2300000,4.6429e-11,
-2400000,4.6796e-11,
-2500000,4.5334e-11,
-2600000,4.6282e-11,
-2700000,4.5579e-11,
-2800000,4.4149e-11,
-2900000,4.4031e-11,
-3000000,4.2937e-11,
-3100000,4.2603e-11,
-3200000,4.0774e-11,
-3300000,4.0352e-11,
-3400000,4.1048e-11,
-3500000,4.0496e-11,
-3600000,3.9539e-11,
-3700000,3.8392e-11,
-3800000,3.6984e-11,
-3900000,3.7305e-11,
-4000000,3.6387e-11,
-4100000,3.5763e-11,
-4200000,3.5445e-11,
-4300000,3.3761e-11,
-4400000,3.3641e-11,
-4500000,3.271e-11,
-4600000,3.2533e-11,
-4700000,3.1913e-11,
-4800000,3.2235e-11,
-4900000,3.1572e-11,
-5000000,2.992e-11,
-4950000,3.0521e-11,
-4850000,3.1086e-11,
-4750000,3.1707e-11,
-4650000,3.1882e-11,
-4550000,3.267e-11,
-4450000,3.3363e-11,
-4350000,3.354e-11,
-4250000,3.4258e-11,
-4150000,3.5273e-11,
-4050000,3.6203e-11,
-3950000,3.6171e-11,
-3850000,3.6963e-11,
-3750000,3.7711e-11,
-3650000,3.8204e-11,
-3550000,3.8956e-11,
-3450000,3.9689e-11,
-3350000,4.0386e-11,
-3250000,4.1479e-11,
-3150000,4.2868e-11,
-3050000,4.2617e-11,
-2950000,4.3091e-11,
-2850000,4.4377e-11,
-2750000,4.454e-11,
-2650000,4.4296e-11,
-2550000,4.4671e-11,
-2450000,4.6116e-11,
-2350000,4.6651e-11,
-2250000,4.6494e-11,
-2150000,4.6276e-11,
-2050000,4.7836e-11,
-1950000,4.7729e-11,
-1850000,4.785e-11,
-1750000,4.8124e-11,
-1650000,4.6884e-11,
-1550000,4.6704e-11,
-1450000,4.7653e-11,
-1350000,4.7423e-11,
-1250000,4.6567e-11,
-1150000,4.6671e-11,
-1050000,4.6487e-11,
-950000,4.5268e-11,
-850000,4.5157e-11,
-750000,4.4734e-11,
-650000,4.4349e-11,
-550000,4.3582e-11,
-450000,4.3037e-11,
-350000,4.1639e-11,
-250000,4.1789e-11,
-150000,4.1916e-11,
-50000,4.1985e-11,
50000,4.0909e-11,
150000,4.1218e-11,
