General parameters:
Start time: 2023              8             28              3             39      34.577857
Finish time: 2023              8             28              3             45      31.869782
Dwell time (ms): 3000.000000
Source chamber pressure: 2.00e+3
Differential chamber pressure: 6.35e-07
Sample chamber pressure: 3.58e-08
Example position (nm): -3470000.000000,316000.000000,-1000000.000000
Rotation angle (udeg): 90000160.000000
==========
Instrument status: 
0:Data Directory:/icon/data/2023_08_MoS2_5um_hbn_sub/
1:Sample:MoS2
2:Comments:no
3:PinholePlate:#C13
4:z_Zero:4200
5:Operator:djw77/nav31/kw570
==========
zscan inputs: 
z_sep:50000
z_range:200000 -5000000
data_path:/icon/data/2023_08_MoS2_5um_hbn_sub/
example_pos:-3470000   316000 -1000000
N_dwell:200
sampling_period:15
make_plots:1
m1:0.98976
m2:-0.0073571
==========
Detector params:
Sampling period (ms): 15.000000
N dwell: 200.000000
Filament current (A): 1.540000
Filament emission (mA): 1.902204
Solenoid current (A): NaN
Solenoid shim current (A): NaN
Lens params:
0  685
1  300
2  125
3      -0.002
4       -0.01
5       0.012
6         0.8
7         2.1
8         2.8
9  3000
10  1450
11         0.85
12   0
==========
Data:
z(nm),I(A)
200000,8.2801e-11,
100000,8.2439e-11,
0,7.6421e-11,
-100000,7.0358e-11,
-200000,6.6582e-11,
-300000,5.9629e-11,
-400000,5.8293e-11,
-500000,6.0007e-11,
-600000,6.8068e-11,
-700000,8.7946e-11,
-800000,1.2608e-10,
-900000,1.6763e-10,
-1000000,1.7861e-10,
-1100000,1.5452e-10,
-1200000,1.1413e-10,
-1300000,8.8129e-11,
-1400000,6.9838e-11,
-1500000,6.1098e-11,
-1600000,5.8034e-11,
-1700000,5.5352e-11,
-1800000,5.377e-11,
-1900000,5.2643e-11,
-2000000,5.2513e-11,
-2100000,5.2923e-11,
-2200000,5.7873e-11,
-2300000,6.3339e-11,
-2400000,7.2757e-11,
-2500000,7.8285e-11,
-2600000,7.6801e-11,
-2700000,7.1495e-11,
-2800000,6.0853e-11,
-2900000,5.1358e-11,
-3000000,4.5967e-11,
-3100000,4.3171e-11,
-3200000,4.2649e-11,
-3300000,4.3525e-11,
-3400000,4.4374e-11,
-3500000,4.5181e-11,
-3600000,4.4489e-11,
-3700000,4.2991e-11,
-3800000,4.1053e-11,
-3900000,3.8907e-11,
-4000000,3.6014e-11,
-4100000,3.3701e-11,
-4200000,3.3385e-11,
-4300000,3.2232e-11,
-4400000,3.1148e-11,
-4500000,3.154e-11,
-4600000,2.9911e-11,
-4700000,2.9566e-11,
-4800000,2.8893e-11,
-4900000,2.7379e-11,
-5000000,2.7913e-11,
-4950000,2.7069e-11,
-4850000,2.8526e-11,
-4750000,2.8535e-11,
-4650000,3.0603e-11,
-4550000,3.0351e-11,
-4450000,3.176e-11,
-4350000,3.3702e-11,
-4250000,3.1871e-11,
-4150000,3.3463e-11,
-4050000,3.6263e-11,
-3950000,3.7457e-11,
-3850000,3.9661e-11,
-3750000,4.2099e-11,
-3650000,4.3944e-11,
-3550000,4.5307e-11,
-3450000,4.5282e-11,
-3350000,4.3918e-11,
-3250000,4.3507e-11,
-3150000,4.2736e-11,
-3050000,4.3847e-11,
-2950000,4.6814e-11,
-2850000,5.5441e-11,
-2750000,6.4556e-11,
-2650000,7.6415e-11,
-2550000,7.9346e-11,
-2450000,7.7102e-11,
-2350000,6.9601e-11,
-2250000,6.0436e-11,
-2150000,5.5306e-11,
-2050000,5.3743e-11,
-1950000,5.2357e-11,
-1850000,5.4256e-11,
-1750000,5.4537e-11,
-1650000,5.665e-11,
-1550000,5.9509e-11,
-1450000,6.4694e-11,
-1350000,7.6345e-11,
-1250000,9.5855e-11,
-1150000,1.2882e-10,
-1050000,1.6786e-10,
-950000,1.8593e-10,
-850000,1.6094e-10,
-750000,1.1012e-10,
-650000,7.9298e-11,
-550000,6.4306e-11,
-450000,5.9267e-11,
-350000,5.9625e-11,
-250000,6.3973e-11,
-150000,6.6924e-11,
-50000,7.3116e-11,
50000,7.9835e-11,
150000,8.3504e-11,
