General parameters:
Start time: 2023              8             23             14             23      45.240129
Finish time: 2023              8             23             14             29      43.665875
Dwell time (ms): 3000.000000
Source chamber pressure: 2.00e+3
Differential chamber pressure: 7.73e-07
Sample chamber pressure: 3.84e-08
Example position (nm): -2725349.462459,65060.373455,-1000000.000000
Rotation angle (udeg): 145000060.000000
==========
Instrument status: 
0:Data Directory:/icon/data/2023_08_MoS2_5um_hbn_sub/
1:Sample:MoS2
2:Comments:no
3:PinholePlate:#C13
4:z_Zero:4200
5:Operator:djw77/nav31/kw570
==========
zscan inputs: 
z_sep:50000
z_range:200000 -5000000
data_path:/icon/data/2023_08_MoS2_5um_hbn_sub/
example_pos:-2725349.4625      65060.373455          -1000000
N_dwell:200
sampling_period:15
make_plots:1
m1:0.98976
m2:-0.0073571
==========
Detector params:
Sampling period (ms): 15.000000
N dwell: 200.000000
Filament current (A): 1.540000
Filament emission (mA): 1.760274
Solenoid current (A): NaN
Solenoid shim current (A): NaN
Lens params:
0  685
1  300
2  125
3      -0.002
4       -0.01
5       0.012
6         0.8
7         2.1
8         2.8
9  3000
10  1450
11         0.85
12   0
==========
Data:
z(nm),I(A)
200000,4.1009e-11,
100000,4.1213e-11,
0,4.1651e-11,
-100000,4.0608e-11,
-200000,4.1089e-11,
-300000,4.1106e-11,
-400000,4.2819e-11,
-500000,4.1513e-11,
-600000,4.3006e-11,
-700000,4.2698e-11,
-800000,4.342e-11,
-900000,4.3248e-11,
-1000000,4.2416e-11,
-1100000,4.328e-11,
-1200000,4.309e-11,
-1300000,4.2642e-11,
-1400000,4.2771e-11,
-1500000,4.308e-11,
-1600000,4.3372e-11,
-1700000,4.3487e-11,
-1800000,4.345e-11,
-1900000,4.3134e-11,
-2000000,4.3169e-11,
-2100000,4.236e-11,
-2200000,4.2416e-11,
-2300000,4.2263e-11,
-2400000,4.1543e-11,
-2500000,4.0325e-11,
-2600000,3.9637e-11,
-2700000,4.025e-11,
-2800000,3.9284e-11,
-2900000,3.8733e-11,
-3000000,3.8091e-11,
-3100000,3.7938e-11,
-3200000,3.7651e-11,
-3300000,3.7658e-11,
-3400000,3.6458e-11,
-3500000,3.5015e-11,
-3600000,3.3979e-11,
-3700000,3.4814e-11,
-3800000,3.3637e-11,
-3900000,3.3371e-11,
-4000000,3.2084e-11,
-4100000,3.1733e-11,
-4200000,3.116e-11,
-4300000,3.0668e-11,
-4400000,2.9709e-11,
-4500000,2.9515e-11,
-4600000,2.8953e-11,
-4700000,2.8628e-11,
-4800000,2.858e-11,
-4900000,2.7402e-11,
-5000000,2.6242e-11,
-4950000,2.7684e-11,
-4850000,2.7572e-11,
-4750000,2.8125e-11,
-4650000,2.878e-11,
-4550000,2.9725e-11,
-4450000,3.0082e-11,
-4350000,3.0088e-11,
-4250000,3.1323e-11,
-4150000,3.1416e-11,
-4050000,3.2073e-11,
-3950000,3.3442e-11,
-3850000,3.371e-11,
-3750000,3.3076e-11,
-3650000,3.3966e-11,
-3550000,3.5597e-11,
-3450000,3.5693e-11,
-3350000,3.6715e-11,
-3250000,3.6895e-11,
-3150000,3.7632e-11,
-3050000,3.7575e-11,
-2950000,3.9154e-11,
-2850000,3.8876e-11,
-2750000,4.0373e-11,
-2650000,4.0769e-11,
-2550000,4.0824e-11,
-2450000,4.1274e-11,
-2350000,4.2299e-11,
-2250000,4.2261e-11,
-2150000,4.3352e-11,
-2050000,4.3054e-11,
-1950000,4.247e-11,
-1850000,4.367e-11,
-1750000,4.2768e-11,
-1650000,4.3543e-11,
-1550000,4.2322e-11,
-1450000,4.2781e-11,
-1350000,4.2892e-11,
-1250000,4.2999e-11,
-1150000,4.3061e-11,
-1050000,4.3313e-11,
-950000,4.3025e-11,
-850000,4.3425e-11,
-750000,4.2995e-11,
-650000,4.1398e-11,
-550000,4.1294e-11,
-450000,4.2037e-11,
-350000,4.0777e-11,
-250000,4.2972e-11,
-150000,4.1122e-11,
-50000,4.0773e-11,
50000,4.1205e-11,
150000,4.1356e-11,
