General parameters:
Start time: 2023              8             19             17             10      22.589587
Finish time: 2023              8             19             17             16      21.935228
Dwell time (ms): 3000.000000
Source chamber pressure: 2.00e+3
Differential chamber pressure: 7.98e-07
Sample chamber pressure: 3.79e-08
Example position (nm): -2887813.876318,194919.110327,-1000000.000000
Rotation angle (udeg): 127500025.000000
==========
Instrument status: 
0:Data Directory:/icon/data/2023_08_MoS2_5um_hbn_sub/
1:Sample:MoS2
2:Comments:no
3:PinholePlate:#C13
4:z_Zero:4200
5:Operator:djw77/nav31/kw570
==========
zscan inputs: 
z_sep:50000
z_range:200000 -5000000
data_path:/icon/data/2023_08_MoS2_5um_hbn_sub/
example_pos:-2887813.8763      194919.11033          -1000000
N_dwell:200
sampling_period:15
make_plots:0
m1:0.98976
m2:-0.0073571
==========
Detector params:
Sampling period (ms): 15.000000
N dwell: 200.000000
Filament current (A): 1.540000
Filament emission (mA): 1.693242
Solenoid current (A): NaN
Solenoid shim current (A): NaN
Lens params:
0  685
1  300
2  125
3      -0.002
4       -0.01
5       0.012
6         0.8
7         2.1
8         2.8
9  3000
10  1450
11         0.85
12   0
==========
Data:
z(nm),I(A)
200000,4.4884e-11,
100000,4.5029e-11,
0,4.5806e-11,
-100000,4.4749e-11,
-200000,4.5267e-11,
-300000,4.5364e-11,
-400000,4.5223e-11,
-500000,4.5429e-11,
-600000,4.6359e-11,
-700000,4.7847e-11,
-800000,4.6152e-11,
-900000,4.5882e-11,
-1000000,4.6773e-11,
-1100000,4.642e-11,
-1200000,4.6988e-11,
-1300000,4.694e-11,
-1400000,4.712e-11,
-1500000,4.7282e-11,
-1600000,4.7269e-11,
-1700000,4.6852e-11,
-1800000,4.7085e-11,
-1900000,4.6024e-11,
-2000000,4.7367e-11,
-2100000,4.6653e-11,
-2200000,4.6818e-11,
-2300000,4.6286e-11,
-2400000,4.5219e-11,
-2500000,4.551e-11,
-2600000,4.4161e-11,
-2700000,4.4192e-11,
-2800000,4.3463e-11,
-2900000,4.2339e-11,
-3000000,4.2019e-11,
-3100000,4.2047e-11,
-3200000,4.0013e-11,
-3300000,4.0407e-11,
-3400000,3.9946e-11,
-3500000,3.9581e-11,
-3600000,3.8743e-11,
-3700000,3.8003e-11,
-3800000,3.6308e-11,
-3900000,3.5987e-11,
-4000000,3.621e-11,
-4100000,3.5181e-11,
-4200000,3.4916e-11,
-4300000,3.3082e-11,
-4400000,3.3034e-11,
-4500000,3.2677e-11,
-4600000,3.202e-11,
-4700000,3.1084e-11,
-4800000,3.078e-11,
-4900000,3.0666e-11,
-5000000,2.9282e-11,
-4950000,2.997e-11,
-4850000,3.0121e-11,
-4750000,3.0856e-11,
-4650000,3.1533e-11,
-4550000,3.2553e-11,
-4450000,3.288e-11,
-4350000,3.2581e-11,
-4250000,3.4005e-11,
-4150000,3.387e-11,
-4050000,3.5252e-11,
-3950000,3.5835e-11,
-3850000,3.6431e-11,
-3750000,3.6934e-11,
-3650000,3.7342e-11,
-3550000,3.9209e-11,
-3450000,3.882e-11,
-3350000,3.95e-11,
-3250000,4.0956e-11,
-3150000,4.142e-11,
-3050000,4.2498e-11,
-2950000,4.2649e-11,
-2850000,4.4083e-11,
-2750000,4.4246e-11,
-2650000,4.5118e-11,
-2550000,4.4996e-11,
-2450000,4.5113e-11,
-2350000,4.5954e-11,
-2250000,4.6364e-11,
-2150000,4.6989e-11,
-2050000,4.7397e-11,
-1950000,4.6668e-11,
-1850000,4.7975e-11,
-1750000,4.7215e-11,
-1650000,4.6609e-11,
-1550000,4.7151e-11,
-1450000,4.6882e-11,
-1350000,4.7716e-11,
-1250000,4.6622e-11,
-1150000,4.7627e-11,
-1050000,4.6491e-11,
-950000,4.6097e-11,
-850000,4.6756e-11,
-750000,4.6699e-11,
-650000,4.6679e-11,
-550000,4.7111e-11,
-450000,4.5453e-11,
-350000,4.474e-11,
-250000,4.5803e-11,
-150000,4.4852e-11,
-50000,4.6228e-11,
50000,4.5685e-11,
150000,4.5743e-11,
