General parameters:
Start time: 2023              8             28              3             15      27.404639
Finish time: 2023              8             28              3             21      24.248726
Dwell time (ms): 3000.000000
Source chamber pressure: 2.00e+3
Differential chamber pressure: 6.34e-07
Sample chamber pressure: 3.62e-08
Example position (nm): -3631374.833206,272922.783889,-1000000.000000
Rotation angle (udeg): 80000090.000000
==========
Instrument status: 
0:Data Directory:/icon/data/2023_08_MoS2_5um_hbn_sub/
1:Sample:MoS2
2:Comments:no
3:PinholePlate:#C13
4:z_Zero:4200
5:Operator:djw77/nav31/kw570
==========
zscan inputs: 
z_sep:50000
z_range:200000 -5000000
data_path:/icon/data/2023_08_MoS2_5um_hbn_sub/
example_pos:-3631374.8332      272922.78389          -1000000
N_dwell:200
sampling_period:15
make_plots:1
m1:0.98976
m2:-0.0073571
==========
Detector params:
Sampling period (ms): 15.000000
N dwell: 200.000000
Filament current (A): 1.540000
Filament emission (mA): 1.899468
Solenoid current (A): NaN
Solenoid shim current (A): NaN
Lens params:
0  685
1  300
2  125
3      -0.002
4       -0.01
5       0.012
6         0.8
7         2.1
8         2.8
9  3000
10  1450
11         0.85
12   0
==========
Data:
z(nm),I(A)
200000,1.4126e-10,
100000,1.2895e-10,
0,1.1307e-10,
-100000,9.717e-11,
-200000,8.2263e-11,
-300000,7.1545e-11,
-400000,6.355e-11,
-500000,6.1443e-11,
-600000,6.7656e-11,
-700000,8.7323e-11,
-800000,1.2526e-10,
-900000,1.6789e-10,
-1000000,1.8084e-10,
-1100000,1.7225e-10,
-1200000,1.3187e-10,
-1300000,9.8483e-11,
-1400000,7.8203e-11,
-1500000,6.7682e-11,
-1600000,6.5338e-11,
-1700000,6.7043e-11,
-1800000,6.8966e-11,
-1900000,6.7975e-11,
-2000000,6.7536e-11,
-2100000,6.0679e-11,
-2200000,5.8589e-11,
-2300000,5.6478e-11,
-2400000,5.4909e-11,
-2500000,5.6245e-11,
-2600000,5.5364e-11,
-2700000,5.4644e-11,
-2800000,5.3397e-11,
-2900000,5.271e-11,
-3000000,5.3163e-11,
-3100000,5.0923e-11,
-3200000,5.0197e-11,
-3300000,5.0524e-11,
-3400000,5.0736e-11,
-3500000,5.0128e-11,
-3600000,4.9245e-11,
-3700000,4.6025e-11,
-3800000,4.2832e-11,
-3900000,3.8882e-11,
-4000000,3.6793e-11,
-4100000,3.522e-11,
-4200000,3.357e-11,
-4300000,3.3013e-11,
-4400000,3.1989e-11,
-4500000,3.241e-11,
-4600000,3.2759e-11,
-4700000,3.1828e-11,
-4800000,3.3123e-11,
-4900000,3.2288e-11,
-5000000,3.0906e-11,
-4950000,3.1766e-11,
-4850000,3.2182e-11,
-4750000,3.2504e-11,
-4650000,3.24e-11,
-4550000,3.2246e-11,
-4450000,3.3268e-11,
-4350000,3.2477e-11,
-4250000,3.3923e-11,
-4150000,3.3795e-11,
-4050000,3.6097e-11,
-3950000,3.689e-11,
-3850000,4.1072e-11,
-3750000,4.3287e-11,
-3650000,4.7997e-11,
-3550000,5.0766e-11,
-3450000,5.109e-11,
-3350000,5.123e-11,
-3250000,5.0683e-11,
-3150000,5.0433e-11,
-3050000,5.1743e-11,
-2950000,5.128e-11,
-2850000,5.3496e-11,
-2750000,5.3513e-11,
-2650000,5.4036e-11,
-2550000,5.5176e-11,
-2450000,5.5732e-11,
-2350000,5.6225e-11,
-2250000,5.6833e-11,
-2150000,5.964e-11,
-2050000,6.2755e-11,
-1950000,6.811e-11,
-1850000,6.9884e-11,
-1750000,6.8319e-11,
-1650000,6.6526e-11,
-1550000,6.7026e-11,
-1450000,7.2597e-11,
-1350000,8.2852e-11,
-1250000,1.0889e-10,
-1150000,1.507e-10,
-1050000,1.8027e-10,
-950000,1.8034e-10,
-850000,1.5637e-10,
-750000,1.089e-10,
-650000,7.8724e-11,
-550000,6.4999e-11,
-450000,6.1158e-11,
-350000,6.5147e-11,
-250000,7.2914e-11,
-150000,8.8477e-11,
-50000,1.0405e-10,
50000,1.1989e-10,
150000,1.3245e-10,
