General parameters:
Start time: 2023              8             21             15             30      40.672838
Finish time: 2023              8             21             15             36      37.698261
Dwell time (ms): 3000.000000
Source chamber pressure: 2.00e+3
Differential chamber pressure: 7.98e-07
Sample chamber pressure: 3.84e-08
Example position (nm): -3429818.691072,306765.912793,-1000000.000000
Rotation angle (udeg): 92500150.000000
==========
Instrument status: 
0:Data Directory:/icon/data/2023_08_MoS2_5um_hbn_sub/
1:Sample:MoS2
2:Comments:no
3:PinholePlate:#C13
4:z_Zero:4200
5:Operator:djw77/nav31/kw570
==========
zscan inputs: 
z_sep:50000
z_range:200000 -5000000
data_path:/icon/data/2023_08_MoS2_5um_hbn_sub/
example_pos:-3429818.6911      306765.91279          -1000000
N_dwell:200
sampling_period:15
make_plots:0
m1:0.98976
m2:-0.0073571
==========
Detector params:
Sampling period (ms): 15.000000
N dwell: 200.000000
Filament current (A): 1.540000
Filament emission (mA): 1.740438
Solenoid current (A): NaN
Solenoid shim current (A): NaN
Lens params:
0  685
1  300
2  125
3      -0.002
4       -0.01
5       0.012
6         0.8
7         2.1
8         2.8
9  3000
10  1450
11         0.85
12   0
==========
Data:
z(nm),I(A)
200000,6.6789e-11,
100000,6.8337e-11,
0,7.016e-11,
-100000,6.6051e-11,
-200000,6.4454e-11,
-300000,6.2955e-11,
-400000,6.1062e-11,
-500000,6.1999e-11,
-600000,6.876e-11,
-700000,8.0218e-11,
-800000,8.6574e-11,
-900000,9.0861e-11,
-1000000,9.6447e-11,
-1100000,9.8608e-11,
-1200000,9.1626e-11,
-1300000,8.4395e-11,
-1400000,7.6409e-11,
-1500000,6.9369e-11,
-1600000,6.9113e-11,
-1700000,6.4435e-11,
-1800000,6.2552e-11,
-1900000,5.9822e-11,
-2000000,5.6203e-11,
-2100000,5.4287e-11,
-2200000,5.6136e-11,
-2300000,5.6829e-11,
-2400000,5.8639e-11,
-2500000,5.9396e-11,
-2600000,5.9532e-11,
-2700000,5.5991e-11,
-2800000,5.3513e-11,
-2900000,4.9918e-11,
-3000000,4.7253e-11,
-3100000,4.6033e-11,
-3200000,4.4348e-11,
-3300000,4.2961e-11,
-3400000,4.2306e-11,
-3500000,4.2683e-11,
-3600000,4.0351e-11,
-3700000,3.9377e-11,
-3800000,3.8733e-11,
-3900000,3.6667e-11,
-4000000,3.4599e-11,
-4100000,3.4858e-11,
-4200000,3.4087e-11,
-4300000,3.374e-11,
-4400000,3.2025e-11,
-4500000,3.099e-11,
-4600000,3.0919e-11,
-4700000,3.041e-11,
-4800000,2.8978e-11,
-4900000,2.9173e-11,
-5000000,2.8311e-11,
-4950000,2.7433e-11,
-4850000,2.8302e-11,
-4750000,2.9293e-11,
-4650000,3.0383e-11,
-4550000,3.1987e-11,
-4450000,3.208e-11,
-4350000,3.2648e-11,
-4250000,3.2379e-11,
-4150000,3.4529e-11,
-4050000,3.5479e-11,
-3950000,3.5956e-11,
-3850000,3.6912e-11,
-3750000,3.7723e-11,
-3650000,4.0847e-11,
-3550000,4.0967e-11,
-3450000,4.1672e-11,
-3350000,4.2186e-11,
-3250000,4.4238e-11,
-3150000,4.4856e-11,
-3050000,4.6476e-11,
-2950000,4.8193e-11,
-2850000,5.1569e-11,
-2750000,5.3529e-11,
-2650000,5.6329e-11,
-2550000,5.8816e-11,
-2450000,6.0942e-11,
-2350000,5.8017e-11,
-2250000,5.7182e-11,
-2150000,5.5032e-11,
-2050000,5.5612e-11,
-1950000,5.843e-11,
-1850000,5.9691e-11,
-1750000,6.3644e-11,
-1650000,6.6033e-11,
-1550000,6.8913e-11,
-1450000,7.193e-11,
-1350000,7.9484e-11,
-1250000,8.7765e-11,
-1150000,9.3882e-11,
-1050000,9.6406e-11,
-950000,9.168e-11,
-850000,8.5679e-11,
-750000,8.5177e-11,
-650000,7.5798e-11,
-550000,6.587e-11,
-450000,6.209e-11,
-350000,6.167e-11,
-250000,6.3806e-11,
-150000,6.5727e-11,
-50000,6.9004e-11,
50000,6.9988e-11,
150000,6.826e-11,
