General parameters:
Start time: 2023              8             18             16             18       1.314317
Finish time: 2023              8             18             16             23      59.941029
Dwell time (ms): 3000.000000
Source chamber pressure: 2.00e+3
Differential chamber pressure: 7.92e-07
Sample chamber pressure: 3.88e-08
Example position (nm): -3599003.200411,243064.635495,-1000000.000000
Rotation angle (udeg): 80000155.000000
==========
Instrument status: 
0:Data Directory:/icon/data/2023_08_MoS2_5um_hbn_sub/
1:Sample:MoS2
2:Comments:no
3:PinholePlate:#C13
4:z_Zero:4200
5:Operator:djw77/nav31/kw570
==========
zscan inputs: 
z_sep:50000
z_range:200000 -5000000
data_path:/icon/data/2023_08_MoS2_5um_hbn_sub/
example_pos:-3599003.2004       243064.6355          -1000000
N_dwell:200
sampling_period:15
make_plots:1
m1:0.98976
m2:-0.0073571
==========
Detector params:
Sampling period (ms): 15.000000
N dwell: 200.000000
Filament current (A): 1.540000
Filament emission (mA): 1.653570
Solenoid current (A): NaN
Solenoid shim current (A): NaN
Lens params:
0  685
1  300
2  125
3      -0.002
4       -0.01
5       0.012
6         0.8
7         2.1
8         2.8
9  3000
10  1450
11         0.85
12   0
==========
Data:
z(nm),I(A)
200000,4.4001e-11,
100000,4.5996e-11,
0,4.431e-11,
-100000,4.0118e-11,
-200000,3.9943e-11,
-300000,3.8927e-11,
-400000,3.9273e-11,
-500000,3.8699e-11,
-600000,3.9522e-11,
-700000,4.1348e-11,
-800000,4.0381e-11,
-900000,3.8717e-11,
-1000000,3.9983e-11,
-1100000,4.2559e-11,
-1200000,4.4474e-11,
-1300000,4.7729e-11,
-1400000,4.5122e-11,
-1500000,4.4036e-11,
-1600000,4.4058e-11,
-1700000,4.126e-11,
-1800000,4.0913e-11,
-1900000,4.1339e-11,
-2000000,4.0834e-11,
-2100000,4.0809e-11,
-2200000,4.0933e-11,
-2300000,3.9452e-11,
-2400000,3.9388e-11,
-2500000,3.8573e-11,
-2600000,3.875e-11,
-2700000,3.8085e-11,
-2800000,3.8081e-11,
-2900000,3.7558e-11,
-3000000,3.6319e-11,
-3100000,3.5513e-11,
-3200000,3.5505e-11,
-3300000,3.497e-11,
-3400000,3.3701e-11,
-3500000,3.3663e-11,
-3600000,3.2878e-11,
-3700000,3.1917e-11,
-3800000,3.1725e-11,
-3900000,3.1162e-11,
-4000000,3.0925e-11,
-4100000,2.8913e-11,
-4200000,2.9272e-11,
-4300000,2.8041e-11,
-4400000,2.8217e-11,
-4500000,2.7811e-11,
-4600000,2.7471e-11,
-4700000,2.6604e-11,
-4800000,2.6502e-11,
-4900000,2.6155e-11,
-5000000,2.5632e-11,
-4950000,2.5511e-11,
-4850000,2.5831e-11,
-4750000,2.5685e-11,
-4650000,2.6936e-11,
-4550000,2.7545e-11,
-4450000,2.8148e-11,
-4350000,2.8801e-11,
-4250000,2.8475e-11,
-4150000,2.9658e-11,
-4050000,3.0246e-11,
-3950000,3.1287e-11,
-3850000,3.1014e-11,
-3750000,3.2854e-11,
-3650000,3.2848e-11,
-3550000,3.2637e-11,
-3450000,3.4017e-11,
-3350000,3.3855e-11,
-3250000,3.5261e-11,
-3150000,3.4962e-11,
-3050000,3.681e-11,
-2950000,3.6854e-11,
-2850000,3.8182e-11,
-2750000,3.7918e-11,
-2650000,3.8391e-11,
-2550000,3.9082e-11,
-2450000,3.9659e-11,
-2350000,3.8905e-11,
-2250000,3.9638e-11,
-2150000,4.1093e-11,
-2050000,4.0251e-11,
-1950000,4.0656e-11,
-1850000,4.0688e-11,
-1750000,4.1232e-11,
-1650000,4.2324e-11,
-1550000,4.0933e-11,
-1450000,4.1085e-11,
-1350000,4.0852e-11,
-1250000,4.2867e-11,
-1150000,4.1354e-11,
-1050000,4.052e-11,
-950000,3.9785e-11,
-850000,3.8227e-11,
-750000,3.8533e-11,
-650000,3.9055e-11,
-550000,3.7455e-11,
-450000,3.6836e-11,
-350000,3.7476e-11,
-250000,3.6636e-11,
-150000,3.6739e-11,
-50000,3.7986e-11,
50000,3.9361e-11,
150000,3.9736e-11,
