General parameters:
Start time: 2023              8             18             17              8      10.253902
Finish time: 2023              8             18             17             14       6.685597
Dwell time (ms): 3000.000000
Source chamber pressure: 2.00e+3
Differential chamber pressure: 7.94e-07
Sample chamber pressure: 3.88e-08
Example position (nm): -3990223.353017,-19211.149026,-1000000.000000
Rotation angle (udeg): 50000005.000000
==========
Instrument status: 
0:Data Directory:/icon/data/2023_08_MoS2_5um_hbn_sub/
1:Sample:MoS2
2:Comments:no
3:PinholePlate:#C13
4:z_Zero:4200
5:Operator:djw77/nav31/kw570
==========
zscan inputs: 
z_sep:50000
z_range:200000 -5000000
data_path:/icon/data/2023_08_MoS2_5um_hbn_sub/
example_pos:-3990223.353     -19211.149026          -1000000
N_dwell:200
sampling_period:15
make_plots:0
m1:0.98976
m2:-0.0073571
==========
Detector params:
Sampling period (ms): 15.000000
N dwell: 200.000000
Filament current (A): 1.540000
Filament emission (mA): 1.657332
Solenoid current (A): NaN
Solenoid shim current (A): NaN
Lens params:
0  685
1  300
2  125
3      -0.002
4       -0.01
5       0.012
6         0.8
7         2.1
8         2.8
9  3000
10  1450
11         0.85
12   0
==========
Data:
z(nm),I(A)
200000,4.7358e-11,
100000,4.6078e-11,
0,4.831e-11,
-100000,5.1726e-11,
-200000,5.1094e-11,
-300000,5.1744e-11,
-400000,5.397e-11,
-500000,5.7181e-11,
-600000,5.5901e-11,
-700000,6.0096e-11,
-800000,6.706e-11,
-900000,7.4143e-11,
-1000000,7.0583e-11,
-1100000,6.7636e-11,
-1200000,6.8402e-11,
-1300000,6.4358e-11,
-1400000,7.1338e-11,
-1500000,6.7525e-11,
-1600000,6.463e-11,
-1700000,6.4129e-11,
-1800000,6.156e-11,
-1900000,5.9914e-11,
-2000000,6.019e-11,
-2100000,5.8641e-11,
-2200000,5.6968e-11,
-2300000,5.6916e-11,
-2400000,5.3596e-11,
-2500000,5.1572e-11,
-2600000,5.2551e-11,
-2700000,5.1922e-11,
-2800000,4.8766e-11,
-2900000,4.7037e-11,
-3000000,4.5037e-11,
-3100000,4.3546e-11,
-3200000,4.3553e-11,
-3300000,4.2875e-11,
-3400000,4.14e-11,
-3500000,3.9842e-11,
-3600000,3.7924e-11,
-3700000,3.649e-11,
-3800000,3.4883e-11,
-3900000,3.3632e-11,
-4000000,3.2902e-11,
-4100000,3.0749e-11,
-4200000,3.0536e-11,
-4300000,2.9577e-11,
-4400000,2.8321e-11,
-4500000,2.7643e-11,
-4600000,2.7375e-11,
-4700000,2.5857e-11,
-4800000,2.4807e-11,
-4900000,2.4019e-11,
-5000000,2.384e-11,
-4950000,2.4212e-11,
-4850000,2.5006e-11,
-4750000,2.5272e-11,
-4650000,2.6068e-11,
-4550000,2.6691e-11,
-4450000,2.6797e-11,
-4350000,2.8408e-11,
-4250000,2.9846e-11,
-4150000,3.1077e-11,
-4050000,3.2096e-11,
-3950000,3.3124e-11,
-3850000,3.4585e-11,
-3750000,3.5328e-11,
-3650000,3.7607e-11,
-3550000,3.7636e-11,
-3450000,4.0299e-11,
-3350000,4.1975e-11,
-3250000,4.3637e-11,
-3150000,4.4006e-11,
-3050000,4.4881e-11,
-2950000,4.5959e-11,
-2850000,4.7485e-11,
-2750000,4.9226e-11,
-2650000,5.1441e-11,
-2550000,5.0371e-11,
-2450000,5.3728e-11,
-2350000,5.5175e-11,
-2250000,5.7903e-11,
-2150000,5.86e-11,
-2050000,5.9974e-11,
-1950000,6.1891e-11,
-1850000,6.1331e-11,
-1750000,6.4545e-11,
-1650000,6.8217e-11,
-1550000,6.8236e-11,
-1450000,7.1469e-11,
-1350000,7.1188e-11,
-1250000,6.7034e-11,
-1150000,7.2554e-11,
-1050000,7.1343e-11,
-950000,7.4295e-11,
-850000,7.1716e-11,
-750000,6.2723e-11,
-650000,5.7511e-11,
-550000,5.5684e-11,
-450000,5.732e-11,
-350000,5.3579e-11,
-250000,5.0674e-11,
-150000,4.9667e-11,
-50000,4.8454e-11,
50000,4.7485e-11,
150000,4.5294e-11,
