General parameters:
Start time: 2023              8             19             13             56      34.194635
Finish time: 2023              8             19             14              2      31.044038
Dwell time (ms): 3000.000000
Source chamber pressure: 2.00e+3
Differential chamber pressure: 7.96e-07
Sample chamber pressure: 3.84e-08
Example position (nm): -4033389.183437,-65875.622481,-1000000.000000
Rotation angle (udeg): 47500345.000000
==========
Instrument status: 
0:Data Directory:/icon/data/2023_08_MoS2_5um_hbn_sub/
1:Sample:MoS2
2:Comments:no
3:PinholePlate:#C13
4:z_Zero:4200
5:Operator:djw77/nav31/kw570
==========
zscan inputs: 
z_sep:50000
z_range:200000 -5000000
data_path:/icon/data/2023_08_MoS2_5um_hbn_sub/
example_pos:-4033389.1834     -65875.622481          -1000000
N_dwell:200
sampling_period:15
make_plots:0
m1:0.98976
m2:-0.0073571
==========
Detector params:
Sampling period (ms): 15.000000
N dwell: 200.000000
Filament current (A): 1.540000
Filament emission (mA): 1.682640
Solenoid current (A): NaN
Solenoid shim current (A): NaN
Lens params:
0  685
1  300
2  125
3      -0.002
4       -0.01
5       0.012
6         0.8
7         2.1
8         2.8
9  3000
10  1450
11         0.85
12   0
==========
Data:
z(nm),I(A)
200000,4.1981e-11,
100000,4.4133e-11,
0,4.36e-11,
-100000,4.3225e-11,
-200000,4.4723e-11,
-300000,4.5263e-11,
-400000,4.6362e-11,
-500000,4.972e-11,
-600000,5.5073e-11,
-700000,5.8306e-11,
-800000,6.308e-11,
-900000,6.7615e-11,
-1000000,7.1334e-11,
-1100000,7.5743e-11,
-1200000,7.255e-11,
-1300000,7.2261e-11,
-1400000,6.9238e-11,
-1500000,6.6719e-11,
-1600000,6.2634e-11,
-1700000,6.1422e-11,
-1800000,5.9327e-11,
-1900000,5.7476e-11,
-2000000,5.5393e-11,
-2100000,5.3722e-11,
-2200000,5.3368e-11,
-2300000,5.2391e-11,
-2400000,5.1922e-11,
-2500000,5.3815e-11,
-2600000,5.1516e-11,
-2700000,5.03e-11,
-2800000,4.8609e-11,
-2900000,4.6811e-11,
-3000000,4.6188e-11,
-3100000,4.375e-11,
-3200000,4.2805e-11,
-3300000,4.1337e-11,
-3400000,4.0666e-11,
-3500000,4.0595e-11,
-3600000,3.9057e-11,
-3700000,3.891e-11,
-3800000,3.7348e-11,
-3900000,3.6006e-11,
-4000000,3.3897e-11,
-4100000,3.4063e-11,
-4200000,3.1827e-11,
-4300000,3.0818e-11,
-4400000,3.0106e-11,
-4500000,2.8251e-11,
-4600000,2.7788e-11,
-4700000,2.5962e-11,
-4800000,2.6623e-11,
-4900000,2.5077e-11,
-5000000,2.5292e-11,
-4950000,2.5472e-11,
-4850000,2.5929e-11,
-4750000,2.6984e-11,
-4650000,2.7283e-11,
-4550000,2.7867e-11,
-4450000,2.8373e-11,
-4350000,2.9964e-11,
-4250000,3.0747e-11,
-4150000,3.2086e-11,
-4050000,3.3145e-11,
-3950000,3.3838e-11,
-3850000,3.6686e-11,
-3750000,3.7327e-11,
-3650000,3.8624e-11,
-3550000,4.0288e-11,
-3450000,4.0856e-11,
-3350000,4.1108e-11,
-3250000,4.2067e-11,
-3150000,4.3653e-11,
-3050000,4.5453e-11,
-2950000,4.6737e-11,
-2850000,4.8136e-11,
-2750000,4.8766e-11,
-2650000,5.1581e-11,
-2550000,5.2235e-11,
-2450000,5.2728e-11,
-2350000,5.3546e-11,
-2250000,5.317e-11,
-2150000,5.5073e-11,
-2050000,5.5327e-11,
-1950000,5.5371e-11,
-1850000,5.904e-11,
-1750000,6.0769e-11,
-1650000,6.2507e-11,
-1550000,6.7185e-11,
-1450000,7.1542e-11,
-1350000,7.6814e-11,
-1250000,8.0687e-11,
-1150000,8.4671e-11,
-1050000,8.648e-11,
-950000,8.1893e-11,
-850000,7.6051e-11,
-750000,6.7207e-11,
-650000,6.0849e-11,
-550000,5.7578e-11,
-450000,5.1982e-11,
-350000,4.9172e-11,
-250000,4.9329e-11,
-150000,4.6447e-11,
-50000,4.5131e-11,
50000,4.6283e-11,
150000,4.6415e-11,
