General parameters:
Start time: 2023              8             29              3             55      32.695553
Finish time: 2023              8             29              4              2      37.376753
Dwell time (ms): 3000.000000
Source chamber pressure: 2.00e+3
Differential chamber pressure: 6.05e-07
Sample chamber pressure: 3.62e-08
Example position (nm): -3551885.222397,296478.200403,-1000000.000000
Rotation angle (udeg): 84999925.000000
==========
Instrument status: 
0:Data Directory:/icon/data/2023_08_MoS2_5um_hbn_sub/
1:Sample:MoS2
2:Comments:no
3:PinholePlate:#C13
4:z_Zero:4200
5:Operator:djw77/nav31/kw570
==========
zscan inputs: 
z_sep:50000
z_range:200000 -6000000
data_path:/icon/data/2023_08_MoS2_5um_hbn_sub/
example_pos:-3551885.2224       296478.2004          -1000000
N_dwell:200
sampling_period:15
make_plots:1
m1:0.98976
m2:-0.0073571
==========
Detector params:
Sampling period (ms): 15.000000
N dwell: 200.000000
Filament current (A): 1.540000
Filament emission (mA): 1.921014
Solenoid current (A): NaN
Solenoid shim current (A): NaN
Lens params:
0  685
1  300
2  125
3      -0.002
4       -0.01
5       0.012
6         0.8
7         2.1
8         2.8
9  3000
10  1450
11         0.85
12   0
==========
Data:
z(nm),I(A)
200000,1.519e-10,
100000,1.3997e-10,
0,1.2659e-10,
-100000,1.1358e-10,
-200000,9.7378e-11,
-300000,8.6936e-11,
-400000,7.9426e-11,
-500000,7.8863e-11,
-600000,8.7386e-11,
-700000,1.161e-10,
-800000,1.7073e-10,
-900000,2.3337e-10,
-1000000,2.5038e-10,
-1100000,2.2243e-10,
-1200000,1.6622e-10,
-1300000,1.2304e-10,
-1400000,9.6706e-11,
-1500000,8.2477e-11,
-1600000,7.7398e-11,
-1700000,7.4034e-11,
-1800000,7.3641e-11,
-1900000,7.3549e-11,
-2000000,7.0931e-11,
-2100000,7.1461e-11,
-2200000,7.1246e-11,
-2300000,7.6573e-11,
-2400000,8.006e-11,
-2500000,8.3508e-11,
-2600000,7.885e-11,
-2700000,7.5141e-11,
-2800000,6.7666e-11,
-2900000,6.1804e-11,
-3000000,6.0942e-11,
-3100000,5.8605e-11,
-3200000,6.2102e-11,
-3300000,6.5808e-11,
-3400000,7.0121e-11,
-3500000,7.1948e-11,
-3600000,7.225e-11,
-3700000,6.7663e-11,
-3800000,6.1289e-11,
-3900000,5.5739e-11,
-4000000,4.9966e-11,
-4100000,4.636e-11,
-4200000,4.336e-11,
-4300000,4.1683e-11,
-4400000,3.9928e-11,
-4500000,3.9145e-11,
-4600000,3.9487e-11,
-4700000,3.8574e-11,
-4800000,3.7691e-11,
-4900000,3.7808e-11,
-5000000,3.6446e-11,
-5100000,3.5895e-11,
-5200000,3.5343e-11,
-5300000,3.4491e-11,
-5400000,3.321e-11,
-5500000,3.4675e-11,
-5600000,3.3928e-11,
-5700000,3.2397e-11,
-5800000,3.1134e-11,
-5900000,3.1245e-11,
-6000000,3.0301e-11,
-5950000,3.04e-11,
-5850000,3.0929e-11,
-5750000,3.1849e-11,
-5650000,3.4533e-11,
-5550000,3.3465e-11,
-5450000,3.3269e-11,
-5350000,3.3453e-11,
-5250000,3.4673e-11,
-5150000,3.4833e-11,
-5050000,3.6597e-11,
-4950000,3.6191e-11,
-4850000,3.7605e-11,
-4750000,3.8102e-11,
-4650000,3.8996e-11,
-4550000,3.8305e-11,
-4450000,4.0181e-11,
-4350000,4.0588e-11,
-4250000,4.2062e-11,
-4150000,4.408e-11,
-4050000,4.7548e-11,
-3950000,5.1426e-11,
-3850000,5.7821e-11,
-3750000,6.4605e-11,
-3650000,6.8418e-11,
-3550000,7.1817e-11,
-3450000,7.187e-11,
-3350000,6.828e-11,
-3250000,6.4428e-11,
-3150000,6.0852e-11,
-3050000,5.9447e-11,
-2950000,6.1316e-11,
-2850000,6.5133e-11,
-2750000,7.1417e-11,
-2650000,7.8133e-11,
-2550000,8.1964e-11,
-2450000,8.4111e-11,
-2350000,7.9226e-11,
-2250000,7.5293e-11,
-2150000,7.2303e-11,
-2050000,7.1325e-11,
-1950000,7.1964e-11,
-1850000,7.4315e-11,
-1750000,7.47e-11,
-1650000,7.4646e-11,
-1550000,7.8107e-11,
-1450000,8.8697e-11,
-1350000,1.0556e-10,
-1250000,1.3669e-10,
-1150000,1.8989e-10,
-1050000,2.2971e-10,
-950000,2.4729e-10,
-850000,2.1308e-10,
-750000,1.4836e-10,
-650000,1.0459e-10,
-550000,8.358e-11,
-450000,7.8732e-11,
-350000,8.2475e-11,
-250000,8.9569e-11,
-150000,1.0297e-10,
-50000,1.1598e-10,
50000,1.3151e-10,
150000,1.4547e-10,
