General parameters:
Start time: 2023              9              5             14             57      54.061661
Finish time: 2023              9              5             15              6      58.312375
Dwell time (ms): 3750.000000
Source chamber pressure: Error-S
Differential chamber pressure: 7.95e-07
Sample chamber pressure: 3.74e-08
Example position (nm): -4570000.000000,230000.000000,-2700000.000000
Rotation angle (udeg): 125000275.000000
==========
Instrument status: 
0:Data Directory:/icon/data/2023_08_MoS2_5um_hbn_sub/
1:Sample:MoS2
2:Comments:no
3:PinholePlate:#C13
4:z_Zero:4200
5:Operator:djw77/nav31/kw570
==========
zscan inputs: 
z_sep:50000
z_range:500000 -6000000
data_path:/icon/data/2023_08_MoS2_5um_hbn_sub/
example_pos:-4570000   230000 -2700000
N_dwell:250
sampling_period:15
make_plots:1
m1:0.98976
m2:-0.0073571
==========
Detector params:
Sampling period (ms): 15.000000
N dwell: 250.000000
Filament current (A): 1.540000
Filament emission (mA): 1.912122
Solenoid current (A): NaN
Solenoid shim current (A): NaN
Lens params:
0  685
1  300
2  125
3      -0.002
4       -0.01
5       0.012
6         0.8
7         2.1
8         2.8
9  3000
10  1450
11         0.85
12   0
==========
Data:
z(nm),I(A)
500000,6.6373e-11,
400000,6.7736e-11,
300000,7.2697e-11,
200000,8.3046e-11,
100000,9.2118e-11,
0,9.5187e-11,
-100000,9.8276e-11,
-200000,1.0117e-10,
-300000,1.1089e-10,
-400000,1.1507e-10,
-500000,1.2187e-10,
-600000,1.2765e-10,
-700000,1.2984e-10,
-800000,1.4399e-10,
-900000,1.6059e-10,
-1000000,1.5711e-10,
-1100000,1.5759e-10,
-1200000,1.4543e-10,
-1300000,1.471e-10,
-1400000,1.4659e-10,
-1500000,1.3977e-10,
-1600000,1.3817e-10,
-1700000,1.3861e-10,
-1800000,1.3367e-10,
-1900000,1.2949e-10,
-2000000,1.2837e-10,
-2100000,1.237e-10,
-2200000,1.2163e-10,
-2300000,1.2573e-10,
-2400000,1.2546e-10,
-2500000,1.2402e-10,
-2600000,1.2266e-10,
-2700000,1.2213e-10,
-2800000,1.2087e-10,
-2900000,1.1632e-10,
-3000000,1.1155e-10,
-3100000,1.0814e-10,
-3200000,1.019e-10,
-3300000,9.7807e-11,
-3400000,9.4146e-11,
-3500000,8.9443e-11,
-3600000,8.6343e-11,
-3700000,8.0813e-11,
-3800000,7.8946e-11,
-3900000,7.6632e-11,
-4000000,7.3449e-11,
-4100000,6.9478e-11,
-4200000,6.6228e-11,
-4300000,6.1969e-11,
-4400000,5.9205e-11,
-4500000,5.6132e-11,
-4600000,5.409e-11,
-4700000,5.0989e-11,
-4800000,4.9772e-11,
-4900000,4.8347e-11,
-5000000,4.5952e-11,
-5100000,4.4373e-11,
-5200000,4.2978e-11,
-5300000,4.2468e-11,
-5400000,4.2051e-11,
-5500000,4.2576e-11,
-5600000,4.2766e-11,
-5700000,4.0636e-11,
-5800000,3.8246e-11,
-5900000,3.7283e-11,
-6000000,3.627e-11,
-5950000,3.6572e-11,
-5850000,3.772e-11,
-5750000,4.0001e-11,
-5650000,4.1903e-11,
-5550000,4.2918e-11,
-5450000,4.3236e-11,
-5350000,4.2159e-11,
-5250000,4.3535e-11,
-5150000,4.3306e-11,
-5050000,4.5958e-11,
-4950000,4.6643e-11,
-4850000,4.8016e-11,
-4750000,5.0402e-11,
-4650000,5.1993e-11,
-4550000,5.4124e-11,
-4450000,5.6196e-11,
-4350000,5.9476e-11,
-4250000,6.2104e-11,
-4150000,6.5789e-11,
-4050000,6.8896e-11,
-3950000,7.3348e-11,
-3850000,7.5322e-11,
-3750000,7.9918e-11,
-3650000,8.1819e-11,
-3550000,8.7703e-11,
-3450000,9.1697e-11,
-3350000,9.5158e-11,
-3250000,9.9569e-11,
-3150000,1.0321e-10,
-3050000,1.0587e-10,
-2950000,1.1334e-10,
-2850000,1.1666e-10,
-2750000,1.1891e-10,
-2650000,1.211e-10,
-2550000,1.2191e-10,
-2450000,1.2116e-10,
-2350000,1.2072e-10,
-2250000,1.1761e-10,
-2150000,1.1286e-10,
-2050000,1.1399e-10,
-1950000,1.1642e-10,
-1850000,1.1377e-10,
-1750000,1.2756e-10,
-1650000,1.3135e-10,
-1550000,1.2779e-10,
-1450000,1.2975e-10,
-1350000,1.3587e-10,
-1250000,1.2746e-10,
-1150000,1.379e-10,
-1050000,1.4963e-10,
-950000,1.5442e-10,
-850000,1.5015e-10,
-750000,1.3117e-10,
-650000,1.1623e-10,
-550000,1.0639e-10,
-450000,1.0492e-10,
-350000,9.5774e-11,
-250000,8.996e-11,
-150000,8.4318e-11,
-50000,8.4962e-11,
50000,7.7338e-11,
150000,7.692e-11,
250000,6.8893e-11,
350000,6.6694e-11,
450000,6.4232e-11,
