General parameters:
Start time: 2023              8             18             16             56       4.419263
Finish time: 2023              8             18             17              2       2.464949
Dwell time (ms): 3000.000000
Source chamber pressure: 2.00e+3
Differential chamber pressure: 7.94e-07
Sample chamber pressure: 3.84e-08
Example position (nm): -4039813.234975,-81193.821045,-1000000.000000
Rotation angle (udeg): 44999720.000000
==========
Instrument status: 
0:Data Directory:/icon/data/2023_08_MoS2_5um_hbn_sub/
1:Sample:MoS2
2:Comments:no
3:PinholePlate:#C13
4:z_Zero:4200
5:Operator:djw77/nav31/kw570
==========
zscan inputs: 
z_sep:50000
z_range:200000 -5000000
data_path:/icon/data/2023_08_MoS2_5um_hbn_sub/
example_pos:-4039813.235     -81193.821045          -1000000
N_dwell:200
sampling_period:15
make_plots:0
m1:0.98976
m2:-0.0073571
==========
Detector params:
Sampling period (ms): 15.000000
N dwell: 200.000000
Filament current (A): 1.540000
Filament emission (mA): 1.658016
Solenoid current (A): NaN
Solenoid shim current (A): NaN
Lens params:
0  685
1  300
2  125
3      -0.002
4       -0.01
5       0.012
6         0.8
7         2.1
8         2.8
9  3000
10  1450
11         0.85
12   0
==========
Data:
z(nm),I(A)
200000,3.4018e-11,
100000,3.563e-11,
0,3.4321e-11,
-100000,3.4571e-11,
-200000,3.5311e-11,
-300000,3.5014e-11,
-400000,3.6033e-11,
-500000,3.5844e-11,
-600000,3.7332e-11,
-700000,3.7127e-11,
-800000,3.7606e-11,
-900000,3.7793e-11,
-1000000,3.8822e-11,
-1100000,3.9022e-11,
-1200000,3.9992e-11,
-1300000,3.997e-11,
-1400000,4.0449e-11,
-1500000,4.0583e-11,
-1600000,3.9696e-11,
-1700000,4.0353e-11,
-1800000,4.0464e-11,
-1900000,4.0826e-11,
-2000000,4.003e-11,
-2100000,3.9411e-11,
-2200000,4.0393e-11,
-2300000,3.9575e-11,
-2400000,3.9842e-11,
-2500000,3.8596e-11,
-2600000,3.9159e-11,
-2700000,3.7933e-11,
-2800000,3.7909e-11,
-2900000,3.7362e-11,
-3000000,3.7628e-11,
-3100000,3.6057e-11,
-3200000,3.4984e-11,
-3300000,3.5487e-11,
-3400000,3.4248e-11,
-3500000,3.2994e-11,
-3600000,3.3092e-11,
-3700000,3.3002e-11,
-3800000,3.1949e-11,
-3900000,3.1457e-11,
-4000000,3.011e-11,
-4100000,2.9559e-11,
-4200000,2.9897e-11,
-4300000,2.8629e-11,
-4400000,2.7638e-11,
-4500000,2.8223e-11,
-4600000,2.7223e-11,
-4700000,2.6364e-11,
-4800000,2.6508e-11,
-4900000,2.5783e-11,
-5000000,2.4608e-11,
-4950000,2.5505e-11,
-4850000,2.5583e-11,
-4750000,2.612e-11,
-4650000,2.7264e-11,
-4550000,2.8028e-11,
-4450000,2.8249e-11,
-4350000,2.9752e-11,
-4250000,2.9267e-11,
-4150000,2.9846e-11,
-4050000,3.0364e-11,
-3950000,3.1325e-11,
-3850000,3.162e-11,
-3750000,3.1948e-11,
-3650000,3.3079e-11,
-3550000,3.4024e-11,
-3450000,3.3549e-11,
-3350000,3.5104e-11,
-3250000,3.5587e-11,
-3150000,3.5629e-11,
-3050000,3.6122e-11,
-2950000,3.5854e-11,
-2850000,3.6465e-11,
-2750000,3.7864e-11,
-2650000,3.7295e-11,
-2550000,3.8579e-11,
-2450000,3.8691e-11,
-2350000,3.9325e-11,
-2250000,4.0406e-11,
-2150000,3.9918e-11,
-2050000,4.062e-11,
-1950000,4.0367e-11,
-1850000,4.0843e-11,
-1750000,3.9842e-11,
-1650000,4.0709e-11,
-1550000,4.0273e-11,
-1450000,4.0417e-11,
-1350000,3.9422e-11,
-1250000,3.9855e-11,
-1150000,3.9412e-11,
-1050000,3.8704e-11,
-950000,3.8716e-11,
-850000,3.8476e-11,
-750000,3.7815e-11,
-650000,3.6342e-11,
-550000,3.5636e-11,
-450000,3.5634e-11,
-350000,3.5726e-11,
-250000,3.4941e-11,
-150000,3.5389e-11,
-50000,3.3966e-11,
50000,3.4385e-11,
150000,3.4874e-11,
