General parameters:
Start time: 2023              9              5              1             40       0.723742
Finish time: 2023              9              5              1             49       3.085656
Dwell time (ms): 3750.000000
Source chamber pressure: Error-S
Differential chamber pressure: 8.01e-07
Sample chamber pressure: 3.67e-08
Example position (nm): -4567000.000000,2345000.000000,-2700000.000000
Rotation angle (udeg): 124999815.000000
==========
Instrument status: 
0:Data Directory:/icon/data/2023_08_MoS2_5um_hbn_sub/
1:Sample:MoS2
2:Comments:no
3:PinholePlate:#C13
4:z_Zero:4200
5:Operator:djw77/nav31/kw570
==========
zscan inputs: 
z_sep:50000
z_range:500000 -6000000
data_path:/icon/data/2023_08_MoS2_5um_hbn_sub/
example_pos:-4567000  2345000 -2700000
N_dwell:250
sampling_period:15
make_plots:1
m1:0.98976
m2:-0.0073571
==========
Detector params:
Sampling period (ms): 15.000000
N dwell: 250.000000
Filament current (A): 1.540000
Filament emission (mA): 1.927512
Solenoid current (A): NaN
Solenoid shim current (A): NaN
Lens params:
0  685
1  300
2  125
3      -0.002
4       -0.01
5       0.012
6         0.8
7         2.1
8         2.8
9  3000
10  1450
11         0.85
12   0
==========
Data:
z(nm),I(A)
500000,8.9939e-11,
400000,8.8494e-11,
300000,8.6941e-11,
200000,8.5491e-11,
100000,8.3557e-11,
0,8.3046e-11,
-100000,8.152e-11,
-200000,8.0785e-11,
-300000,7.7597e-11,
-400000,7.5964e-11,
-500000,7.4325e-11,
-600000,7.3518e-11,
-700000,7.1734e-11,
-800000,7.0709e-11,
-900000,6.8573e-11,
-1000000,6.806e-11,
-1100000,6.7096e-11,
-1200000,6.4803e-11,
-1300000,6.4052e-11,
-1400000,6.1907e-11,
-1500000,6.1146e-11,
-1600000,5.9434e-11,
-1700000,5.8365e-11,
-1800000,5.7599e-11,
-1900000,5.5658e-11,
-2000000,5.5153e-11,
-2100000,5.4937e-11,
-2200000,5.229e-11,
-2300000,5.2967e-11,
-2400000,5.2596e-11,
-2500000,5.1251e-11,
-2600000,5.0689e-11,
-2700000,4.9517e-11,
-2800000,4.8714e-11,
-2900000,4.841e-11,
-3000000,4.7624e-11,
-3100000,4.7006e-11,
-3200000,4.6622e-11,
-3300000,4.5811e-11,
-3400000,4.4976e-11,
-3500000,4.4639e-11,
-3600000,4.3834e-11,
-3700000,4.3258e-11,
-3800000,4.32e-11,
-3900000,4.0808e-11,
-4000000,4.1281e-11,
-4100000,4.1001e-11,
-4200000,4.1252e-11,
-4300000,4.0148e-11,
-4400000,3.9722e-11,
-4500000,3.9303e-11,
-4600000,3.8788e-11,
-4700000,3.8189e-11,
-4800000,3.7749e-11,
-4900000,3.8122e-11,
-5000000,3.7033e-11,
-5100000,3.6887e-11,
-5200000,3.7335e-11,
-5300000,3.7574e-11,
-5400000,3.6262e-11,
-5500000,3.6588e-11,
-5600000,3.6799e-11,
-5700000,3.6641e-11,
-5800000,3.6088e-11,
-5900000,3.5525e-11,
-6000000,3.4608e-11,
-5950000,3.5312e-11,
-5850000,3.5319e-11,
-5750000,3.5721e-11,
-5650000,3.5894e-11,
-5550000,3.6934e-11,
-5450000,3.7014e-11,
-5350000,3.6708e-11,
-5250000,3.6341e-11,
-5150000,3.6932e-11,
-5050000,3.8134e-11,
-4950000,3.7304e-11,
-4850000,3.7282e-11,
-4750000,3.73e-11,
-4650000,3.898e-11,
-4550000,3.9286e-11,
-4450000,3.9516e-11,
-4350000,4.0222e-11,
-4250000,3.9982e-11,
-4150000,4.0756e-11,
-4050000,4.1678e-11,
-3950000,4.1428e-11,
-3850000,4.3164e-11,
-3750000,4.2955e-11,
-3650000,4.3442e-11,
-3550000,4.4462e-11,
-3450000,4.4383e-11,
-3350000,4.4871e-11,
-3250000,4.621e-11,
-3150000,4.6378e-11,
-3050000,4.6937e-11,
-2950000,4.734e-11,
-2850000,4.7861e-11,
-2750000,4.86e-11,
-2650000,4.9317e-11,
-2550000,4.9227e-11,
-2450000,5.0666e-11,
-2350000,5.201e-11,
-2250000,5.2107e-11,
-2150000,5.4012e-11,
-2050000,5.4687e-11,
-1950000,5.5058e-11,
-1850000,5.7289e-11,
-1750000,5.7773e-11,
-1650000,5.9463e-11,
-1550000,5.9375e-11,
-1450000,6.1999e-11,
-1350000,6.2501e-11,
-1250000,6.2735e-11,
-1150000,6.5153e-11,
-1050000,6.6892e-11,
-950000,6.8345e-11,
-850000,6.9434e-11,
-750000,6.9744e-11,
-650000,7.1867e-11,
-550000,7.3802e-11,
-450000,7.612e-11,
-350000,7.7402e-11,
-250000,7.7879e-11,
-150000,8.0082e-11,
-50000,8.1597e-11,
50000,8.1888e-11,
150000,8.4246e-11,
250000,8.5662e-11,
350000,8.584e-11,
450000,8.8245e-11,
