General parameters:
Start time: 2023              8             22              2             16       5.620589
Finish time: 2023              8             22              2             22       2.871885
Dwell time (ms): 3000.000000
Source chamber pressure: 2.00e+3
Differential chamber pressure: 7.99e-07
Sample chamber pressure: 3.74e-08
Example position (nm): -3357160.450776,325684.731611,-1000000.000000
Rotation angle (udeg): 97499885.000000
==========
Instrument status: 
0:Data Directory:/icon/data/2023_08_MoS2_5um_hbn_sub/
1:Sample:MoS2
2:Comments:no
3:PinholePlate:#C13
4:z_Zero:4200
5:Operator:djw77/nav31/kw570
==========
zscan inputs: 
z_sep:50000
z_range:200000 -5000000
data_path:/icon/data/2023_08_MoS2_5um_hbn_sub/
example_pos:-3357160.4508      325684.73161          -1000000
N_dwell:200
sampling_period:15
make_plots:0
m1:0.98976
m2:-0.0073571
==========
Detector params:
Sampling period (ms): 15.000000
N dwell: 200.000000
Filament current (A): 1.540000
Filament emission (mA): 1.751382
Solenoid current (A): NaN
Solenoid shim current (A): NaN
Lens params:
0  685
1  300
2  125
3      -0.002
4       -0.01
5       0.012
6         0.8
7         2.1
8         2.8
9  3000
10  1450
11         0.85
12   0
==========
Data:
z(nm),I(A)
200000,4.8462e-11,
100000,4.8706e-11,
0,5.1073e-11,
-100000,5.1837e-11,
-200000,5.013e-11,
-300000,5.0273e-11,
-400000,5.0296e-11,
-500000,5.3348e-11,
-600000,6.2036e-11,
-700000,8.0463e-11,
-800000,1.1796e-10,
-900000,1.5286e-10,
-1000000,1.6276e-10,
-1100000,1.3001e-10,
-1200000,9.3789e-11,
-1300000,7.1716e-11,
-1400000,6.1374e-11,
-1500000,5.6103e-11,
-1600000,5.4376e-11,
-1700000,5.3804e-11,
-1800000,5.2418e-11,
-1900000,4.9693e-11,
-2000000,4.7857e-11,
-2100000,4.6407e-11,
-2200000,4.9529e-11,
-2300000,5.3613e-11,
-2400000,6.1523e-11,
-2500000,6.6985e-11,
-2600000,6.7809e-11,
-2700000,6.2944e-11,
-2800000,5.3775e-11,
-2900000,4.6162e-11,
-3000000,4.178e-11,
-3100000,3.9492e-11,
-3200000,3.9106e-11,
-3300000,3.8615e-11,
-3400000,3.815e-11,
-3500000,3.7186e-11,
-3600000,3.7656e-11,
-3700000,3.5543e-11,
-3800000,3.3494e-11,
-3900000,3.2926e-11,
-4000000,3.2953e-11,
-4100000,3.2564e-11,
-4200000,3.1117e-11,
-4300000,3.1264e-11,
-4400000,3.2397e-11,
-4500000,3.0821e-11,
-4600000,3.1352e-11,
-4700000,3.0223e-11,
-4800000,2.9752e-11,
-4900000,2.9166e-11,
-5000000,2.8174e-11,
-4950000,2.8256e-11,
-4850000,2.951e-11,
-4750000,2.9714e-11,
-4650000,3.1662e-11,
-4550000,3.1762e-11,
-4450000,3.142e-11,
-4350000,3.1625e-11,
-4250000,3.1686e-11,
-4150000,3.118e-11,
-4050000,3.1428e-11,
-3950000,3.2016e-11,
-3850000,3.2385e-11,
-3750000,3.338e-11,
-3650000,3.5399e-11,
-3550000,3.713e-11,
-3450000,3.6949e-11,
-3350000,3.8361e-11,
-3250000,3.9506e-11,
-3150000,3.9251e-11,
-3050000,4.0462e-11,
-2950000,4.3414e-11,
-2850000,4.8967e-11,
-2750000,5.8553e-11,
-2650000,6.6077e-11,
-2550000,6.9062e-11,
-2450000,6.7079e-11,
-2350000,6.0694e-11,
-2250000,5.1307e-11,
-2150000,4.7687e-11,
-2050000,4.7248e-11,
-1950000,4.7926e-11,
-1850000,4.9149e-11,
-1750000,5.2925e-11,
-1650000,5.2118e-11,
-1550000,5.4004e-11,
-1450000,5.6912e-11,
-1350000,6.5105e-11,
-1250000,7.9099e-11,
-1150000,1.0508e-10,
-1050000,1.4693e-10,
-950000,1.5764e-10,
-850000,1.4158e-10,
-750000,1.0054e-10,
-650000,7.0449e-11,
-550000,5.7358e-11,
-450000,5.1774e-11,
-350000,5.0859e-11,
-250000,5.0097e-11,
-150000,5.1245e-11,
-50000,5.0537e-11,
50000,5.0568e-11,
150000,4.8851e-11,
