General parameters:
Start time: 2023              8             22              1              9      34.131154
Finish time: 2023              8             22              1             15      34.037798
Dwell time (ms): 3000.000000
Source chamber pressure: 2.00e+3
Differential chamber pressure: 7.98e-07
Sample chamber pressure: 3.78e-08
Example position (nm): -3747738.590362,221076.381763,-1000000.000000
Rotation angle (udeg): 70000470.000000
==========
Instrument status: 
0:Data Directory:/icon/data/2023_08_MoS2_5um_hbn_sub/
1:Sample:MoS2
2:Comments:no
3:PinholePlate:#C13
4:z_Zero:4200
5:Operator:djw77/nav31/kw570
==========
zscan inputs: 
z_sep:50000
z_range:200000 -5000000
data_path:/icon/data/2023_08_MoS2_5um_hbn_sub/
example_pos:-3747738.5904      221076.38176          -1000000
N_dwell:200
sampling_period:15
make_plots:0
m1:0.98976
m2:-0.0073571
==========
Detector params:
Sampling period (ms): 15.000000
N dwell: 200.000000
Filament current (A): 1.540000
Filament emission (mA): 1.749330
Solenoid current (A): NaN
Solenoid shim current (A): NaN
Lens params:
0  685
1  300
2  125
3      -0.002
4       -0.01
5       0.012
6         0.8
7         2.1
8         2.8
9  3000
10  1450
11         0.85
12   0
==========
Data:
z(nm),I(A)
200000,4.0323e-11,
100000,4.0545e-11,
0,3.9839e-11,
-100000,3.8809e-11,
-200000,4.1523e-11,
-300000,4.048e-11,
-400000,4.0609e-11,
-500000,4.1235e-11,
-600000,4.1043e-11,
-700000,4.2603e-11,
-800000,4.3139e-11,
-900000,4.3575e-11,
-1000000,4.4511e-11,
-1100000,4.401e-11,
-1200000,4.5341e-11,
-1300000,4.5971e-11,
-1400000,4.601e-11,
-1500000,4.5572e-11,
-1600000,4.5444e-11,
-1700000,4.5583e-11,
-1800000,4.6271e-11,
-1900000,4.5937e-11,
-2000000,4.6066e-11,
-2100000,4.5926e-11,
-2200000,4.5618e-11,
-2300000,4.4689e-11,
-2400000,4.4663e-11,
-2500000,4.3918e-11,
-2600000,4.3638e-11,
-2700000,4.3087e-11,
-2800000,4.3682e-11,
-2900000,4.2843e-11,
-3000000,4.2041e-11,
-3100000,4.0804e-11,
-3200000,4.0638e-11,
-3300000,3.834e-11,
-3400000,3.8947e-11,
-3500000,3.8688e-11,
-3600000,3.7525e-11,
-3700000,3.5555e-11,
-3800000,3.6687e-11,
-3900000,3.4037e-11,
-4000000,3.5096e-11,
-4100000,3.3687e-11,
-4200000,3.368e-11,
-4300000,3.2448e-11,
-4400000,3.3064e-11,
-4500000,3.1247e-11,
-4600000,3.1024e-11,
-4700000,3.0773e-11,
-4800000,2.925e-11,
-4900000,2.9027e-11,
-5000000,2.9634e-11,
-4950000,2.9458e-11,
-4850000,3.0036e-11,
-4750000,3.0147e-11,
-4650000,3.0911e-11,
-4550000,3.0961e-11,
-4450000,3.2275e-11,
-4350000,3.2972e-11,
-4250000,3.362e-11,
-4150000,3.3132e-11,
-4050000,3.4718e-11,
-3950000,3.569e-11,
-3850000,3.6337e-11,
-3750000,3.5397e-11,
-3650000,3.6588e-11,
-3550000,3.7816e-11,
-3450000,3.9048e-11,
-3350000,3.8306e-11,
-3250000,3.9553e-11,
-3150000,4.0617e-11,
-3050000,4.1014e-11,
-2950000,4.1428e-11,
-2850000,4.2664e-11,
-2750000,4.3087e-11,
-2650000,4.2498e-11,
-2550000,4.3611e-11,
-2450000,4.4373e-11,
-2350000,4.4483e-11,
-2250000,4.557e-11,
-2150000,4.4327e-11,
-2050000,4.529e-11,
-1950000,4.5817e-11,
-1850000,4.6785e-11,
-1750000,4.5956e-11,
-1650000,4.4348e-11,
-1550000,4.5922e-11,
-1450000,4.5263e-11,
-1350000,4.4758e-11,
-1250000,4.4897e-11,
-1150000,4.3588e-11,
-1050000,4.4379e-11,
-950000,4.3246e-11,
-850000,4.4072e-11,
-750000,4.2316e-11,
-650000,4.1806e-11,
-550000,4.1955e-11,
-450000,4.1412e-11,
-350000,4.0471e-11,
-250000,4.05e-11,
-150000,3.9885e-11,
-50000,3.998e-11,
50000,3.9683e-11,
150000,3.962e-11,
