General parameters:
Start time: 2023              8             23             12              5       1.838716
Finish time: 2023              8             23             12             10      58.334671
Dwell time (ms): 3000.000000
Source chamber pressure: 2.00e+3
Differential chamber pressure: 7.74e-07
Sample chamber pressure: 3.74e-08
Example position (nm): -4132417.556962,-218059.135517,-1000000.000000
Rotation angle (udeg): 29999955.000000
==========
Instrument status: 
0:Data Directory:/icon/data/2023_08_MoS2_5um_hbn_sub/
1:Sample:MoS2
2:Comments:no
3:PinholePlate:#C13
4:z_Zero:4200
5:Operator:djw77/nav31/kw570
==========
zscan inputs: 
z_sep:50000
z_range:200000 -5000000
data_path:/icon/data/2023_08_MoS2_5um_hbn_sub/
example_pos:-4132417.557     -218059.13552          -1000000
N_dwell:200
sampling_period:15
make_plots:1
m1:0.98976
m2:-0.0073571
==========
Detector params:
Sampling period (ms): 15.000000
N dwell: 200.000000
Filament current (A): 1.540000
Filament emission (mA): 1.794474
Solenoid current (A): NaN
Solenoid shim current (A): NaN
Lens params:
0  685
1  300
2  125
3      -0.002
4       -0.01
5       0.012
6         0.8
7         2.1
8         2.8
9  3000
10  1450
11         0.85
12   0
==========
Data:
z(nm),I(A)
200000,3.2204e-11,
100000,3.2059e-11,
0,3.2517e-11,
-100000,3.2209e-11,
-200000,3.1925e-11,
-300000,3.307e-11,
-400000,3.3051e-11,
-500000,3.5e-11,
-600000,3.4759e-11,
-700000,3.4888e-11,
-800000,3.5447e-11,
-900000,3.5927e-11,
-1000000,3.6413e-11,
-1100000,3.6467e-11,
-1200000,3.6994e-11,
-1300000,3.7006e-11,
-1400000,3.6792e-11,
-1500000,3.8361e-11,
-1600000,3.831e-11,
-1700000,3.7979e-11,
-1800000,3.7779e-11,
-1900000,3.7838e-11,
-2000000,3.7977e-11,
-2100000,3.7339e-11,
-2200000,3.69e-11,
-2300000,3.6398e-11,
-2400000,3.5849e-11,
-2500000,3.5957e-11,
-2600000,3.6664e-11,
-2700000,3.5349e-11,
-2800000,3.6049e-11,
-2900000,3.4804e-11,
-3000000,3.4681e-11,
-3100000,3.3315e-11,
-3200000,3.2394e-11,
-3300000,3.2257e-11,
-3400000,3.1808e-11,
-3500000,3.1297e-11,
-3600000,3.1136e-11,
-3700000,3.0345e-11,
-3800000,2.9615e-11,
-3900000,2.9208e-11,
-4000000,2.8438e-11,
-4100000,2.8561e-11,
-4200000,2.7983e-11,
-4300000,2.706e-11,
-4400000,2.6788e-11,
-4500000,2.6887e-11,
-4600000,2.5563e-11,
-4700000,2.5479e-11,
-4800000,2.5462e-11,
-4900000,2.4507e-11,
-5000000,2.3847e-11,
-4950000,2.4617e-11,
-4850000,2.4791e-11,
-4750000,2.5479e-11,
-4650000,2.4562e-11,
-4550000,2.6077e-11,
-4450000,2.7095e-11,
-4350000,2.7519e-11,
-4250000,2.7295e-11,
-4150000,2.7646e-11,
-4050000,2.8118e-11,
-3950000,2.94e-11,
-3850000,2.9544e-11,
-3750000,3.0104e-11,
-3650000,3.0497e-11,
-3550000,3.1483e-11,
-3450000,3.2005e-11,
-3350000,3.1949e-11,
-3250000,3.3279e-11,
-3150000,3.3413e-11,
-3050000,3.3514e-11,
-2950000,3.4594e-11,
-2850000,3.5525e-11,
-2750000,3.5232e-11,
-2650000,3.5811e-11,
-2550000,3.6976e-11,
-2450000,3.6401e-11,
-2350000,3.6966e-11,
-2250000,3.7623e-11,
-2150000,3.775e-11,
-2050000,3.7595e-11,
-1950000,3.7965e-11,
-1850000,3.8462e-11,
-1750000,3.7903e-11,
-1650000,3.9408e-11,
-1550000,3.7428e-11,
-1450000,3.6913e-11,
-1350000,3.7359e-11,
-1250000,3.6903e-11,
-1150000,3.7858e-11,
-1050000,3.5514e-11,
-950000,3.6093e-11,
-850000,3.5768e-11,
-750000,3.5498e-11,
-650000,3.4423e-11,
-550000,3.5193e-11,
-450000,3.3576e-11,
-350000,3.277e-11,
-250000,3.2077e-11,
-150000,3.1657e-11,
-50000,3.2502e-11,
50000,3.2304e-11,
150000,3.278e-11,
