General parameters:
Start time: 2023              9             18             23             11      21.424457
Finish time: 2023              9             18             23             20       24.21571
Dwell time (ms): 3750.000000
Source chamber pressure: Error-S
Differential chamber pressure: 8.19e-07
Sample chamber pressure: 3.52e-08
Example position (nm): -4577000.000000,230000.000000,-1000000.000000
Rotation angle (udeg): 125000085.000000
==========
Instrument status: 
0:Data Directory:/icon/data/2023_08_MoS2_5um_hbn_sub/
1:Sample:MoS2
2:Comments:no
3:PinholePlate:#C13
4:z_Zero:4200
5:Operator:djw77/nav31/kw570
==========
zscan inputs: 
z_sep:50000
z_range:500000 -6000000
data_path:/icon/data/2023_08_MoS2_5um_hbn_sub/
example_pos:-4577000   230000 -1000000
N_dwell:250
sampling_period:15
make_plots:1
m1:0.98976
m2:-0.0073571
==========
Detector params:
Sampling period (ms): 15.000000
N dwell: 250.000000
Filament current (A): 1.540000
Filament emission (mA): 3.294828
Solenoid current (A): NaN
Solenoid shim current (A): NaN
Lens params:
0  685
1  300
2  125
3      -0.002
4       -0.01
5       0.012
6         0.8
7         2.1
8         2.8
9  3000
10  1450
11         0.85
12   0
==========
Data:
z(nm),I(A)
500000,2.3756e-10,
400000,2.3991e-10,
300000,2.4073e-10,
200000,2.4108e-10,
100000,2.4122e-10,
0,2.4192e-10,
-100000,2.4455e-10,
-200000,2.4637e-10,
-300000,2.4764e-10,
-400000,2.5394e-10,
-500000,2.5603e-10,
-600000,2.6195e-10,
-700000,2.5939e-10,
-800000,2.6673e-10,
-900000,2.6836e-10,
-1000000,2.6989e-10,
-1100000,2.7364e-10,
-1200000,2.7403e-10,
-1300000,2.7433e-10,
-1400000,2.762e-10,
-1500000,2.7481e-10,
-1600000,2.769e-10,
-1700000,2.7516e-10,
-1800000,2.7656e-10,
-1900000,2.7488e-10,
-2000000,2.7522e-10,
-2100000,2.742e-10,
-2200000,2.7012e-10,
-2300000,2.6833e-10,
-2400000,2.6703e-10,
-2500000,2.6438e-10,
-2600000,2.5957e-10,
-2700000,2.5787e-10,
-2800000,2.5619e-10,
-2900000,2.5039e-10,
-3000000,2.4754e-10,
-3100000,2.4537e-10,
-3200000,2.4196e-10,
-3300000,2.3671e-10,
-3400000,2.3355e-10,
-3500000,2.3145e-10,
-3600000,2.2893e-10,
-3700000,2.2464e-10,
-3800000,2.2233e-10,
-3900000,2.1869e-10,
-4000000,2.1694e-10,
-4100000,2.11e-10,
-4200000,2.0693e-10,
-4300000,2.0382e-10,
-4400000,2.002e-10,
-4500000,1.9857e-10,
-4600000,1.9584e-10,
-4700000,1.9388e-10,
-4800000,1.9005e-10,
-4900000,1.8883e-10,
-5000000,1.8654e-10,
-5100000,1.8289e-10,
-5200000,1.7999e-10,
-5300000,1.784e-10,
-5400000,1.7525e-10,
-5500000,1.745e-10,
-5600000,1.7214e-10,
-5700000,1.6877e-10,
-5800000,1.6862e-10,
-5900000,1.648e-10,
-6000000,1.6579e-10,
-5950000,1.6474e-10,
-5850000,1.6581e-10,
-5750000,1.6738e-10,
-5650000,1.7032e-10,
-5550000,1.721e-10,
-5450000,1.7502e-10,
-5350000,1.7678e-10,
-5250000,1.7914e-10,
-5150000,1.8064e-10,
-5050000,1.833e-10,
-4950000,1.8754e-10,
-4850000,1.8918e-10,
-4750000,1.9372e-10,
-4650000,1.9559e-10,
-4550000,1.9957e-10,
-4450000,2.021e-10,
-4350000,2.035e-10,
-4250000,2.0743e-10,
-4150000,2.0891e-10,
-4050000,2.1225e-10,
-3950000,2.1289e-10,
-3850000,2.1957e-10,
-3750000,2.2317e-10,
-3650000,2.2567e-10,
-3550000,2.299e-10,
-3450000,2.335e-10,
-3350000,2.3505e-10,
-3250000,2.3873e-10,
-3150000,2.4354e-10,
-3050000,2.4579e-10,
-2950000,2.4912e-10,
-2850000,2.5233e-10,
-2750000,2.5652e-10,
-2650000,2.6007e-10,
-2550000,2.6474e-10,
-2450000,2.6311e-10,
-2350000,2.6637e-10,
-2250000,2.688e-10,
-2150000,2.7201e-10,
-2050000,2.7082e-10,
-1950000,2.7438e-10,
-1850000,2.7707e-10,
-1750000,2.7608e-10,
-1650000,2.7451e-10,
-1550000,2.747e-10,
-1450000,2.7541e-10,
-1350000,2.759e-10,
-1250000,2.7418e-10,
-1150000,2.707e-10,
-1050000,2.6985e-10,
-950000,2.711e-10,
-850000,2.6761e-10,
-750000,2.643e-10,
-650000,2.6474e-10,
-550000,2.591e-10,
-450000,2.5685e-10,
-350000,2.5411e-10,
-250000,2.4926e-10,
-150000,2.4605e-10,
-50000,2.441e-10,
50000,2.4458e-10,
150000,2.3973e-10,
250000,2.4005e-10,
350000,2.3912e-10,
450000,2.405e-10,
