General parameters:
Start time: 2023              8             29              4             45       35.75017
Finish time: 2023              8             29              4             52      39.849914
Dwell time (ms): 3000.000000
Source chamber pressure: 2.00e+3
Differential chamber pressure: 6.04e-07
Sample chamber pressure: 3.62e-08
Example position (nm): -3268719.582281,331552.370982,-1000000.000000
Rotation angle (udeg): 102500260.000000
==========
Instrument status: 
0:Data Directory:/icon/data/2023_08_MoS2_5um_hbn_sub/
1:Sample:MoS2
2:Comments:no
3:PinholePlate:#C13
4:z_Zero:4200
5:Operator:djw77/nav31/kw570
==========
zscan inputs: 
z_sep:50000
z_range:200000 -6000000
data_path:/icon/data/2023_08_MoS2_5um_hbn_sub/
example_pos:-3268719.5823      331552.37098          -1000000
N_dwell:200
sampling_period:15
make_plots:1
m1:0.98976
m2:-0.0073571
==========
Detector params:
Sampling period (ms): 15.000000
N dwell: 200.000000
Filament current (A): 1.540000
Filament emission (mA): 1.926144
Solenoid current (A): NaN
Solenoid shim current (A): NaN
Lens params:
0  685
1  300
2  125
3      -0.002
4       -0.01
5       0.012
6         0.8
7         2.1
8         2.8
9  3000
10  1450
11         0.85
12   0
==========
Data:
z(nm),I(A)
200000,6.5581e-11,
100000,6.6113e-11,
0,6.7186e-11,
-100000,6.8667e-11,
-200000,6.8712e-11,
-300000,6.8553e-11,
-400000,7.0636e-11,
-500000,7.6935e-11,
-600000,8.9885e-11,
-700000,1.1258e-10,
-800000,1.4936e-10,
-900000,1.8615e-10,
-1000000,1.8819e-10,
-1100000,1.5706e-10,
-1200000,1.2151e-10,
-1300000,9.9175e-11,
-1400000,8.6146e-11,
-1500000,8.2188e-11,
-1600000,8.6752e-11,
-1700000,9.0666e-11,
-1800000,8.9134e-11,
-1900000,8.0842e-11,
-2000000,7.1986e-11,
-2100000,6.7757e-11,
-2200000,6.6089e-11,
-2300000,6.8301e-11,
-2400000,7.2315e-11,
-2500000,7.4786e-11,
-2600000,7.3849e-11,
-2700000,7.2156e-11,
-2800000,6.7905e-11,
-2900000,6.511e-11,
-3000000,6.527e-11,
-3100000,6.6264e-11,
-3200000,6.9563e-11,
-3300000,7.5685e-11,
-3400000,7.9619e-11,
-3500000,8.0592e-11,
-3600000,7.5595e-11,
-3700000,6.7709e-11,
-3800000,5.9417e-11,
-3900000,5.3153e-11,
-4000000,4.9026e-11,
-4100000,4.5824e-11,
-4200000,4.5062e-11,
-4300000,4.2766e-11,
-4400000,4.1913e-11,
-4500000,4.2451e-11,
-4600000,4.0679e-11,
-4700000,3.953e-11,
-4800000,3.8883e-11,
-4900000,3.769e-11,
-5000000,3.7038e-11,
-5100000,3.6561e-11,
-5200000,3.6166e-11,
-5300000,3.551e-11,
-5400000,3.4744e-11,
-5500000,3.5577e-11,
-5600000,3.4287e-11,
-5700000,3.5581e-11,
-5800000,3.5034e-11,
-5900000,3.3281e-11,
-6000000,3.3795e-11,
-5950000,3.2769e-11,
-5850000,3.3324e-11,
-5750000,3.4129e-11,
-5650000,3.5186e-11,
-5550000,3.514e-11,
-5450000,3.5583e-11,
-5350000,3.6325e-11,
-5250000,3.5859e-11,
-5150000,3.6657e-11,
-5050000,3.7052e-11,
-4950000,3.7842e-11,
-4850000,3.9132e-11,
-4750000,3.8371e-11,
-4650000,4.0495e-11,
-4550000,4.0428e-11,
-4450000,4.1732e-11,
-4350000,4.2856e-11,
-4250000,4.3294e-11,
-4150000,4.4652e-11,
-4050000,4.7123e-11,
-3950000,4.9754e-11,
-3850000,5.589e-11,
-3750000,6.2933e-11,
-3650000,7.1705e-11,
-3550000,7.6452e-11,
-3450000,7.9677e-11,
-3350000,7.9086e-11,
-3250000,7.2633e-11,
-3150000,6.7703e-11,
-3050000,6.5066e-11,
-2950000,6.5151e-11,
-2850000,6.6416e-11,
-2750000,6.9494e-11,
-2650000,7.303e-11,
-2550000,7.4757e-11,
-2450000,7.3365e-11,
-2350000,7.0966e-11,
-2250000,6.8608e-11,
-2150000,6.6414e-11,
-2050000,6.9508e-11,
-1950000,7.5271e-11,
-1850000,8.4482e-11,
-1750000,9.2085e-11,
-1650000,8.9688e-11,
-1550000,8.4292e-11,
-1450000,8.3859e-11,
-1350000,9.2657e-11,
-1250000,1.11e-10,
-1150000,1.3832e-10,
-1050000,1.8326e-10,
-950000,1.965e-10,
-850000,1.7716e-10,
-750000,1.3971e-10,
-650000,1.0549e-10,
-550000,8.5336e-11,
-450000,7.4302e-11,
-350000,7.1426e-11,
-250000,7.0154e-11,
-150000,6.9336e-11,
-50000,6.7958e-11,
50000,6.7434e-11,
150000,6.6607e-11,
