General parameters:
Start time: 2023              8             18             17             20      14.257869
Finish time: 2023              8             18             17             26      13.397373
Dwell time (ms): 3000.000000
Source chamber pressure: 2.00e+3
Differential chamber pressure: 7.94e-07
Sample chamber pressure: 3.88e-08
Example position (nm): -3935420.029715,38213.617218,-1000000.000000
Rotation angle (udeg): 55000310.000000
==========
Instrument status: 
0:Data Directory:/icon/data/2023_08_MoS2_5um_hbn_sub/
1:Sample:MoS2
2:Comments:no
3:PinholePlate:#C13
4:z_Zero:4200
5:Operator:djw77/nav31/kw570
==========
zscan inputs: 
z_sep:50000
z_range:200000 -5000000
data_path:/icon/data/2023_08_MoS2_5um_hbn_sub/
example_pos:-3935420.0297      38213.617218          -1000000
N_dwell:200
sampling_period:15
make_plots:0
m1:0.98976
m2:-0.0073571
==========
Detector params:
Sampling period (ms): 15.000000
N dwell: 200.000000
Filament current (A): 1.540000
Filament emission (mA): 1.656306
Solenoid current (A): NaN
Solenoid shim current (A): NaN
Lens params:
0  685
1  300
2  125
3      -0.002
4       -0.01
5       0.012
6         0.8
7         2.1
8         2.8
9  3000
10  1450
11         0.85
12   0
==========
Data:
z(nm),I(A)
200000,5.4684e-11,
100000,5.5281e-11,
0,5.6807e-11,
-100000,5.6356e-11,
-200000,5.9135e-11,
-300000,6.1569e-11,
-400000,6.1125e-11,
-500000,6.3539e-11,
-600000,6.6398e-11,
-700000,6.9597e-11,
-800000,6.9891e-11,
-900000,6.9833e-11,
-1000000,7.3347e-11,
-1100000,7.7886e-11,
-1200000,7.9367e-11,
-1300000,8.0108e-11,
-1400000,7.7116e-11,
-1500000,7.5749e-11,
-1600000,7.4419e-11,
-1700000,7.2311e-11,
-1800000,7.0212e-11,
-1900000,6.8527e-11,
-2000000,6.519e-11,
-2100000,6.3243e-11,
-2200000,6.0655e-11,
-2300000,5.9143e-11,
-2400000,5.8302e-11,
-2500000,5.6438e-11,
-2600000,5.4997e-11,
-2700000,5.3248e-11,
-2800000,5.2593e-11,
-2900000,5.0705e-11,
-3000000,4.9692e-11,
-3100000,4.7466e-11,
-3200000,4.6258e-11,
-3300000,4.4321e-11,
-3400000,4.2014e-11,
-3500000,4.0165e-11,
-3600000,3.9571e-11,
-3700000,3.7108e-11,
-3800000,3.5531e-11,
-3900000,3.4807e-11,
-4000000,3.3314e-11,
-4100000,3.2494e-11,
-4200000,3.0706e-11,
-4300000,2.921e-11,
-4400000,2.8415e-11,
-4500000,2.7868e-11,
-4600000,2.6333e-11,
-4700000,2.6004e-11,
-4800000,2.5083e-11,
-4900000,2.3902e-11,
-5000000,2.3295e-11,
-4950000,2.3915e-11,
-4850000,2.4722e-11,
-4750000,2.5775e-11,
-4650000,2.6374e-11,
-4550000,2.6688e-11,
-4450000,2.8468e-11,
-4350000,2.8917e-11,
-4250000,2.9892e-11,
-4150000,3.1152e-11,
-4050000,3.2879e-11,
-3950000,3.3369e-11,
-3850000,3.6327e-11,
-3750000,3.6528e-11,
-3650000,3.8253e-11,
-3550000,4.0105e-11,
-3450000,4.1269e-11,
-3350000,4.3293e-11,
-3250000,4.4192e-11,
-3150000,4.7481e-11,
-3050000,4.897e-11,
-2950000,5.0073e-11,
-2850000,5.2081e-11,
-2750000,5.2123e-11,
-2650000,5.2825e-11,
-2550000,5.4848e-11,
-2450000,5.8007e-11,
-2350000,5.8094e-11,
-2250000,6.0385e-11,
-2150000,5.9947e-11,
-2050000,6.3789e-11,
-1950000,6.6528e-11,
-1850000,6.9428e-11,
-1750000,7.0852e-11,
-1650000,7.2875e-11,
-1550000,7.5246e-11,
-1450000,7.5348e-11,
-1350000,7.8221e-11,
-1250000,7.9777e-11,
-1150000,7.7251e-11,
-1050000,7.6915e-11,
-950000,7.3191e-11,
-850000,7.0563e-11,
-750000,6.9804e-11,
-650000,6.85e-11,
-550000,6.5443e-11,
-450000,6.4155e-11,
-350000,6.1064e-11,
-250000,6.049e-11,
-150000,5.9002e-11,
-50000,5.6689e-11,
50000,5.6523e-11,
150000,5.459e-11,
