General parameters:
Start time: 2023              8             19             15             15      16.590955
Finish time: 2023              8             19             15             21      13.562816
Dwell time (ms): 3000.000000
Source chamber pressure: 2.00e+3
Differential chamber pressure: 7.96e-07
Sample chamber pressure: 3.84e-08
Example position (nm): -3622638.586484,238897.079231,-1000000.000000
Rotation angle (udeg): 80000070.000000
==========
Instrument status: 
0:Data Directory:/icon/data/2023_08_MoS2_5um_hbn_sub/
1:Sample:MoS2
2:Comments:no
3:PinholePlate:#C13
4:z_Zero:4200
5:Operator:djw77/nav31/kw570
==========
zscan inputs: 
z_sep:50000
z_range:200000 -5000000
data_path:/icon/data/2023_08_MoS2_5um_hbn_sub/
example_pos:-3622638.5865      238897.07923          -1000000
N_dwell:200
sampling_period:15
make_plots:0
m1:0.98976
m2:-0.0073571
==========
Detector params:
Sampling period (ms): 15.000000
N dwell: 200.000000
Filament current (A): 1.540000
Filament emission (mA): 1.684350
Solenoid current (A): NaN
Solenoid shim current (A): NaN
Lens params:
0  685
1  300
2  125
3      -0.002
4       -0.01
5       0.012
6         0.8
7         2.1
8         2.8
9  3000
10  1450
11         0.85
12   0
==========
Data:
z(nm),I(A)
200000,9.6913e-11,
100000,8.3544e-11,
0,7.5561e-11,
-100000,7.341e-11,
-200000,6.3633e-11,
-300000,5.6684e-11,
-400000,5.2477e-11,
-500000,5.1087e-11,
-600000,5.5496e-11,
-700000,6.6798e-11,
-800000,9.6108e-11,
-900000,1.3384e-10,
-1000000,1.4206e-10,
-1100000,1.2922e-10,
-1200000,9.3532e-11,
-1300000,6.8528e-11,
-1400000,6.0576e-11,
-1500000,5.7648e-11,
-1600000,5.6366e-11,
-1700000,5.7569e-11,
-1800000,5.997e-11,
-1900000,5.807e-11,
-2000000,5.6367e-11,
-2100000,5.3455e-11,
-2200000,5.0684e-11,
-2300000,4.8194e-11,
-2400000,4.7939e-11,
-2500000,4.8328e-11,
-2600000,4.8233e-11,
-2700000,4.8253e-11,
-2800000,4.6476e-11,
-2900000,4.6491e-11,
-3000000,4.4277e-11,
-3100000,4.425e-11,
-3200000,4.3618e-11,
-3300000,4.3454e-11,
-3400000,4.2719e-11,
-3500000,4.1674e-11,
-3600000,4.1651e-11,
-3700000,3.8458e-11,
-3800000,3.6287e-11,
-3900000,3.4805e-11,
-4000000,3.2966e-11,
-4100000,3.0436e-11,
-4200000,3.0208e-11,
-4300000,3.0403e-11,
-4400000,2.9998e-11,
-4500000,2.9686e-11,
-4600000,2.9083e-11,
-4700000,2.8467e-11,
-4800000,2.7908e-11,
-4900000,2.7454e-11,
-5000000,2.7583e-11,
-4950000,2.7769e-11,
-4850000,2.7918e-11,
-4750000,2.8462e-11,
-4650000,2.8297e-11,
-4550000,2.8119e-11,
-4450000,2.8243e-11,
-4350000,2.8697e-11,
-4250000,2.9953e-11,
-4150000,3.0667e-11,
-4050000,3.2219e-11,
-3950000,3.279e-11,
-3850000,3.5106e-11,
-3750000,3.7826e-11,
-3650000,3.8901e-11,
-3550000,4.1776e-11,
-3450000,4.3095e-11,
-3350000,4.3706e-11,
-3250000,4.3333e-11,
-3150000,4.5246e-11,
-3050000,4.5171e-11,
-2950000,4.5703e-11,
-2850000,4.7484e-11,
-2750000,4.8008e-11,
-2650000,4.8686e-11,
-2550000,4.8569e-11,
-2450000,4.8078e-11,
-2350000,4.8843e-11,
-2250000,4.9879e-11,
-2150000,5.1009e-11,
-2050000,5.4989e-11,
-1950000,5.764e-11,
-1850000,5.8294e-11,
-1750000,5.6916e-11,
-1650000,5.6506e-11,
-1550000,5.7966e-11,
-1450000,5.8978e-11,
-1350000,6.7455e-11,
-1250000,8.2092e-11,
-1150000,1.1322e-10,
-1050000,1.2966e-10,
-950000,1.2779e-10,
-850000,1.1093e-10,
-750000,8.1628e-11,
-650000,6.3959e-11,
-550000,5.5701e-11,
-450000,5.3864e-11,
-350000,5.6334e-11,
-250000,6.2002e-11,
-150000,6.9302e-11,
-50000,7.9524e-11,
50000,8.9385e-11,
150000,1.025e-10,
