General parameters:
Start time: 2023              8             21             16              0      44.421551
Finish time: 2023              8             21             16              6      40.186946
Dwell time (ms): 3000.000000
Source chamber pressure: 2.00e+3
Differential chamber pressure: 7.98e-07
Sample chamber pressure: 3.79e-08
Example position (nm): -3247696.653100,306778.545035,-1000000.000000
Rotation angle (udeg): 105000125.000000
==========
Instrument status: 
0:Data Directory:/icon/data/2023_08_MoS2_5um_hbn_sub/
1:Sample:MoS2
2:Comments:no
3:PinholePlate:#C13
4:z_Zero:4200
5:Operator:djw77/nav31/kw570
==========
zscan inputs: 
z_sep:50000
z_range:200000 -5000000
data_path:/icon/data/2023_08_MoS2_5um_hbn_sub/
example_pos:-3247696.6531      306778.54503          -1000000
N_dwell:200
sampling_period:15
make_plots:0
m1:0.98976
m2:-0.0073571
==========
Detector params:
Sampling period (ms): 15.000000
N dwell: 200.000000
Filament current (A): 1.540000
Filament emission (mA): 1.740438
Solenoid current (A): NaN
Solenoid shim current (A): NaN
Lens params:
0  685
1  300
2  125
3      -0.002
4       -0.01
5       0.012
6         0.8
7         2.1
8         2.8
9  3000
10  1450
11         0.85
12   0
==========
Data:
z(nm),I(A)
200000,4.6659e-11,
100000,4.8163e-11,
0,4.8521e-11,
-100000,4.817e-11,
-200000,4.8343e-11,
-300000,4.9183e-11,
-400000,4.9887e-11,
-500000,5.4413e-11,
-600000,6.2019e-11,
-700000,7.6729e-11,
-800000,1.0759e-10,
-900000,1.3504e-10,
-1000000,1.3486e-10,
-1100000,1.0313e-10,
-1200000,8.0365e-11,
-1300000,6.6588e-11,
-1400000,6.0524e-11,
-1500000,5.8945e-11,
-1600000,6.3322e-11,
-1700000,6.961e-11,
-1800000,6.9765e-11,
-1900000,6.0826e-11,
-2000000,5.236e-11,
-2100000,4.9813e-11,
-2200000,4.6976e-11,
-2300000,4.6991e-11,
-2400000,4.9291e-11,
-2500000,5.009e-11,
-2600000,4.9822e-11,
-2700000,4.9555e-11,
-2800000,4.7101e-11,
-2900000,4.6297e-11,
-3000000,4.6893e-11,
-3100000,4.9522e-11,
-3200000,5.3826e-11,
-3300000,5.6779e-11,
-3400000,6.034e-11,
-3500000,6.0919e-11,
-3600000,5.9851e-11,
-3700000,5.3779e-11,
-3800000,4.7147e-11,
-3900000,3.9576e-11,
-4000000,3.7027e-11,
-4100000,3.4367e-11,
-4200000,3.3728e-11,
-4300000,3.2294e-11,
-4400000,3.1758e-11,
-4500000,3.0334e-11,
-4600000,3.0934e-11,
-4700000,3.0361e-11,
-4800000,2.892e-11,
-4900000,2.7724e-11,
-5000000,2.8348e-11,
-4950000,2.7657e-11,
-4850000,2.8685e-11,
-4750000,2.9409e-11,
-4650000,2.9163e-11,
-4550000,2.8937e-11,
-4450000,3.0623e-11,
-4350000,3.1916e-11,
-4250000,3.1544e-11,
-4150000,3.3745e-11,
-4050000,3.4882e-11,
-3950000,3.8105e-11,
-3850000,4.3064e-11,
-3750000,4.9609e-11,
-3650000,5.5883e-11,
-3550000,6.0645e-11,
-3450000,6.2655e-11,
-3350000,5.8599e-11,
-3250000,5.6843e-11,
-3150000,5.2552e-11,
-3050000,4.9413e-11,
-2950000,4.7459e-11,
-2850000,4.7289e-11,
-2750000,4.7632e-11,
-2650000,4.9742e-11,
-2550000,4.9855e-11,
-2450000,4.9387e-11,
-2350000,4.8e-11,
-2250000,4.7615e-11,
-2150000,4.8055e-11,
-2050000,4.9603e-11,
-1950000,5.5601e-11,
-1850000,6.456e-11,
-1750000,6.9872e-11,
-1650000,6.6885e-11,
-1550000,6.0708e-11,
-1450000,5.856e-11,
-1350000,6.2755e-11,
-1250000,6.9343e-11,
-1150000,8.7271e-11,
-1050000,1.1915e-10,
-950000,1.3697e-10,
-850000,1.266e-10,
-750000,9.4631e-11,
-650000,7.0699e-11,
-550000,5.8702e-11,
-450000,5.2994e-11,
-350000,5.0366e-11,
-250000,4.964e-11,
-150000,4.9196e-11,
-50000,4.949e-11,
50000,4.8331e-11,
150000,4.8132e-11,
