General parameters:
Start time: 2023              8             29              5             49      56.501197
Finish time: 2023              8             29              5             57         0.0624
Dwell time (ms): 3000.000000
Source chamber pressure: 2.00e+3
Differential chamber pressure: 6.03e-07
Sample chamber pressure: 3.52e-08
Example position (nm): -2916005.431031,240946.309277,-1000000.000000
Rotation angle (udeg): 125000095.000000
==========
Instrument status: 
0:Data Directory:/icon/data/2023_08_MoS2_5um_hbn_sub/
1:Sample:MoS2
2:Comments:no
3:PinholePlate:#C13
4:z_Zero:4200
5:Operator:djw77/nav31/kw570
==========
zscan inputs: 
z_sep:50000
z_range:200000 -6000000
data_path:/icon/data/2023_08_MoS2_5um_hbn_sub/
example_pos:-2916005.431      240946.30928          -1000000
N_dwell:200
sampling_period:15
make_plots:1
m1:0.98976
m2:-0.0073571
==========
Detector params:
Sampling period (ms): 15.000000
N dwell: 200.000000
Filament current (A): 1.540000
Filament emission (mA): 1.925460
Solenoid current (A): NaN
Solenoid shim current (A): NaN
Lens params:
0  685
1  300
2  125
3      -0.002
4       -0.01
5       0.012
6         0.8
7         2.1
8         2.8
9  3000
10  1450
11         0.85
12   0
==========
Data:
z(nm),I(A)
200000,8.2743e-11,
100000,8.2848e-11,
0,8.1535e-11,
-100000,7.9102e-11,
-200000,7.7654e-11,
-300000,7.7771e-11,
-400000,7.8817e-11,
-500000,8.1843e-11,
-600000,9.0879e-11,
-700000,1.1047e-10,
-800000,1.3976e-10,
-900000,1.4907e-10,
-1000000,1.2898e-10,
-1100000,1.0692e-10,
-1200000,9.2016e-11,
-1300000,8.5719e-11,
-1400000,8.4658e-11,
-1500000,9.133e-11,
-1600000,1.0345e-10,
-1700000,1.1721e-10,
-1800000,1.2309e-10,
-1900000,1.1654e-10,
-2000000,9.98e-11,
-2100000,8.5028e-11,
-2200000,8.2293e-11,
-2300000,8.3993e-11,
-2400000,9.7659e-11,
-2500000,1.1932e-10,
-2600000,1.4841e-10,
-2700000,1.6061e-10,
-2800000,1.6628e-10,
-2900000,1.4281e-10,
-3000000,1.162e-10,
-3100000,9.2106e-11,
-3200000,8.0551e-11,
-3300000,7.5419e-11,
-3400000,7.8824e-11,
-3500000,8.1654e-11,
-3600000,8.8045e-11,
-3700000,9.2212e-11,
-3800000,9.5147e-11,
-3900000,9.4057e-11,
-4000000,9.0922e-11,
-4100000,8.135e-11,
-4200000,6.835e-11,
-4300000,5.8488e-11,
-4400000,5.2948e-11,
-4500000,4.9005e-11,
-4600000,4.65e-11,
-4700000,4.6139e-11,
-4800000,4.444e-11,
-4900000,4.4413e-11,
-5000000,4.485e-11,
-5100000,4.3434e-11,
-5200000,4.3526e-11,
-5300000,4.3279e-11,
-5400000,4.1693e-11,
-5500000,4.0745e-11,
-5600000,3.8816e-11,
-5700000,3.734e-11,
-5800000,3.6988e-11,
-5900000,3.6078e-11,
-6000000,3.6226e-11,
-5950000,3.5813e-11,
-5850000,3.6934e-11,
-5750000,3.8018e-11,
-5650000,3.8886e-11,
-5550000,4.0042e-11,
-5450000,4.0996e-11,
-5350000,4.3121e-11,
-5250000,4.3486e-11,
-5150000,4.3663e-11,
-5050000,4.4391e-11,
-4950000,4.5144e-11,
-4850000,4.4819e-11,
-4750000,4.5825e-11,
-4650000,4.7084e-11,
-4550000,4.8372e-11,
-4450000,4.959e-11,
-4350000,5.6235e-11,
-4250000,6.3217e-11,
-4150000,7.2142e-11,
-4050000,8.4653e-11,
-3950000,9.1552e-11,
-3850000,9.4707e-11,
-3750000,9.315e-11,
-3650000,9.1339e-11,
-3550000,8.3978e-11,
-3450000,8.0374e-11,
-3350000,7.55e-11,
-3250000,7.6641e-11,
-3150000,8.4754e-11,
-3050000,9.9031e-11,
-2950000,1.2412e-10,
-2850000,1.4806e-10,
-2750000,1.5932e-10,
-2650000,1.5634e-10,
-2550000,1.3612e-10,
-2450000,1.1085e-10,
-2350000,9.1948e-11,
-2250000,8.2974e-11,
-2150000,8.2656e-11,
-2050000,8.8257e-11,
-1950000,1.0845e-10,
-1850000,1.2168e-10,
-1750000,1.2324e-10,
-1650000,1.1598e-10,
-1550000,9.995e-11,
-1450000,8.7445e-11,
-1350000,8.5256e-11,
-1250000,8.7418e-11,
-1150000,9.8387e-11,
-1050000,1.1319e-10,
-950000,1.3879e-10,
-850000,1.4857e-10,
-750000,1.2717e-10,
-650000,1.0306e-10,
-550000,8.7756e-11,
-450000,8.0833e-11,
-350000,7.8709e-11,
-250000,7.7643e-11,
-150000,7.9196e-11,
-50000,7.8863e-11,
50000,8.1954e-11,
150000,8.3616e-11,
