General parameters:
Start time: 2023              8             21             15             12      40.344854
Finish time: 2023              8             21             15             18      35.078682
Dwell time (ms): 3000.000000
Source chamber pressure: 2.00e+3
Differential chamber pressure: 7.98e-07
Sample chamber pressure: 3.84e-08
Example position (nm): -3537567.237597,287759.230861,-1000000.000000
Rotation angle (udeg): 85000055.000000
==========
Instrument status: 
0:Data Directory:/icon/data/2023_08_MoS2_5um_hbn_sub/
1:Sample:MoS2
2:Comments:no
3:PinholePlate:#C13
4:z_Zero:4200
5:Operator:djw77/nav31/kw570
==========
zscan inputs: 
z_sep:50000
z_range:200000 -5000000
data_path:/icon/data/2023_08_MoS2_5um_hbn_sub/
example_pos:-3537567.2376      287759.23086          -1000000
N_dwell:200
sampling_period:15
make_plots:0
m1:0.98976
m2:-0.0073571
==========
Detector params:
Sampling period (ms): 15.000000
N dwell: 200.000000
Filament current (A): 1.540000
Filament emission (mA): 1.742490
Solenoid current (A): NaN
Solenoid shim current (A): NaN
Lens params:
0  685
1  300
2  125
3      -0.002
4       -0.01
5       0.012
6         0.8
7         2.1
8         2.8
9  3000
10  1450
11         0.85
12   0
==========
Data:
z(nm),I(A)
200000,7.7457e-11,
100000,7.993e-11,
0,8.1153e-11,
-100000,8.1701e-11,
-200000,8.3237e-11,
-300000,8.4401e-11,
-400000,8.2786e-11,
-500000,8.6018e-11,
-600000,9.0631e-11,
-700000,9.8874e-11,
-800000,1.0675e-10,
-900000,1.109e-10,
-1000000,1.3295e-10,
-1100000,1.2636e-10,
-1200000,1.1236e-10,
-1300000,1.0467e-10,
-1400000,9.9822e-11,
-1500000,9.3965e-11,
-1600000,8.737e-11,
-1700000,8.4963e-11,
-1800000,7.9673e-11,
-1900000,7.6189e-11,
-2000000,7.2225e-11,
-2100000,7.1444e-11,
-2200000,6.9992e-11,
-2300000,6.7891e-11,
-2400000,7.0233e-11,
-2500000,6.9945e-11,
-2600000,6.8646e-11,
-2700000,6.3843e-11,
-2800000,5.9672e-11,
-2900000,5.6569e-11,
-3000000,5.2947e-11,
-3100000,5.2734e-11,
-3200000,5.2577e-11,
-3300000,5.0899e-11,
-3400000,5.0336e-11,
-3500000,5.271e-11,
-3600000,5.233e-11,
-3700000,4.9036e-11,
-3800000,4.5916e-11,
-3900000,4.0665e-11,
-4000000,3.6435e-11,
-4100000,3.3601e-11,
-4200000,3.2097e-11,
-4300000,3.0537e-11,
-4400000,3.0257e-11,
-4500000,2.8601e-11,
-4600000,2.9699e-11,
-4700000,2.8385e-11,
-4800000,2.6677e-11,
-4900000,2.7871e-11,
-5000000,2.6157e-11,
-4950000,2.7382e-11,
-4850000,2.6994e-11,
-4750000,2.7996e-11,
-4650000,2.7966e-11,
-4550000,2.942e-11,
-4450000,2.9831e-11,
-4350000,3.0986e-11,
-4250000,3.1688e-11,
-4150000,3.403e-11,
-4050000,3.5111e-11,
-3950000,3.8408e-11,
-3850000,4.2057e-11,
-3750000,4.4762e-11,
-3650000,4.8724e-11,
-3550000,4.998e-11,
-3450000,5.0552e-11,
-3350000,5.0096e-11,
-3250000,5.0977e-11,
-3150000,5.2657e-11,
-3050000,5.3681e-11,
-2950000,5.5817e-11,
-2850000,5.8415e-11,
-2750000,6.1563e-11,
-2650000,6.6087e-11,
-2550000,6.9107e-11,
-2450000,7.1608e-11,
-2350000,7.0986e-11,
-2250000,7.2489e-11,
-2150000,7.3044e-11,
-2050000,7.605e-11,
-1950000,7.8709e-11,
-1850000,8.3601e-11,
-1750000,8.73e-11,
-1650000,9.2287e-11,
-1550000,9.5332e-11,
-1450000,9.9878e-11,
-1350000,1.0306e-10,
-1250000,1.0704e-10,
-1150000,1.0921e-10,
-1050000,1.1875e-10,
-950000,1.1273e-10,
-850000,1.0777e-10,
-750000,1.0286e-10,
-650000,9.7807e-11,
-550000,9.3499e-11,
-450000,9.2083e-11,
-350000,8.7228e-11,
-250000,8.6303e-11,
-150000,8.3103e-11,
-50000,8.2797e-11,
50000,7.992e-11,
150000,7.8411e-11,
