General parameters:
Start time: 2023              8             29              1             54       0.970326
Finish time: 2023              8             29              2              1       4.651295
Dwell time (ms): 3000.000000
Source chamber pressure: 2.00e+3
Differential chamber pressure: 6.07e-07
Sample chamber pressure: 3.62e-08
Example position (nm): -4104903.214760,-71657.577772,-1000000.000000
Rotation angle (udeg): 42499850.000000
==========
Instrument status: 
0:Data Directory:/icon/data/2023_08_MoS2_5um_hbn_sub/
1:Sample:MoS2
2:Comments:no
3:PinholePlate:#C13
4:z_Zero:4200
5:Operator:djw77/nav31/kw570
==========
zscan inputs: 
z_sep:50000
z_range:200000 -6000000
data_path:/icon/data/2023_08_MoS2_5um_hbn_sub/
example_pos:-4104903.2148     -71657.577772          -1000000
N_dwell:200
sampling_period:15
make_plots:1
m1:0.98976
m2:-0.0073571
==========
Detector params:
Sampling period (ms): 15.000000
N dwell: 200.000000
Filament current (A): 1.540000
Filament emission (mA): 1.915542
Solenoid current (A): NaN
Solenoid shim current (A): NaN
Lens params:
0  685
1  300
2  125
3      -0.002
4       -0.01
5       0.012
6         0.8
7         2.1
8         2.8
9  3000
10  1450
11         0.85
12   0
==========
Data:
z(nm),I(A)
200000,5.0622e-11,
100000,4.9741e-11,
0,4.922e-11,
-100000,4.9313e-11,
-200000,5.0671e-11,
-300000,5.0811e-11,
-400000,5.2448e-11,
-500000,5.2645e-11,
-600000,5.3264e-11,
-700000,5.4987e-11,
-800000,5.457e-11,
-900000,5.4639e-11,
-1000000,5.5699e-11,
-1100000,5.7903e-11,
-1200000,5.6342e-11,
-1300000,5.7202e-11,
-1400000,5.8549e-11,
-1500000,5.6935e-11,
-1600000,5.8037e-11,
-1700000,5.8138e-11,
-1800000,5.8022e-11,
-1900000,5.6795e-11,
-2000000,5.7933e-11,
-2100000,5.6917e-11,
-2200000,5.7809e-11,
-2300000,5.8023e-11,
-2400000,5.6713e-11,
-2500000,5.648e-11,
-2600000,5.6427e-11,
-2700000,5.4313e-11,
-2800000,5.5652e-11,
-2900000,5.3608e-11,
-3000000,5.3417e-11,
-3100000,5.4327e-11,
-3200000,5.239e-11,
-3300000,5.1443e-11,
-3400000,5.0752e-11,
-3500000,4.9629e-11,
-3600000,4.8923e-11,
-3700000,4.8241e-11,
-3800000,4.7081e-11,
-3900000,4.5855e-11,
-4000000,4.616e-11,
-4100000,4.5084e-11,
-4200000,4.4051e-11,
-4300000,4.2849e-11,
-4400000,4.2359e-11,
-4500000,4.1956e-11,
-4600000,4.1667e-11,
-4700000,3.9895e-11,
-4800000,3.9508e-11,
-4900000,3.9832e-11,
-5000000,3.8251e-11,
-5100000,3.804e-11,
-5200000,3.6583e-11,
-5300000,3.6342e-11,
-5400000,3.602e-11,
-5500000,3.5399e-11,
-5600000,3.5706e-11,
-5700000,3.4184e-11,
-5800000,3.3194e-11,
-5900000,3.4011e-11,
-6000000,3.3214e-11,
-5950000,3.2656e-11,
-5850000,3.4806e-11,
-5750000,3.3922e-11,
-5650000,3.452e-11,
-5550000,3.5447e-11,
-5450000,3.5183e-11,
-5350000,3.5518e-11,
-5250000,3.6483e-11,
-5150000,3.7407e-11,
-5050000,3.6988e-11,
-4950000,3.7876e-11,
-4850000,3.938e-11,
-4750000,3.8986e-11,
-4650000,4.1195e-11,
-4550000,4.1009e-11,
-4450000,4.1536e-11,
-4350000,4.3043e-11,
-4250000,4.3956e-11,
-4150000,4.3116e-11,
-4050000,4.3186e-11,
-3950000,4.5766e-11,
-3850000,4.7216e-11,
-3750000,4.7629e-11,
-3650000,4.7831e-11,
-3550000,4.9409e-11,
-3450000,4.8761e-11,
-3350000,4.9797e-11,
-3250000,5.3121e-11,
-3150000,5.2077e-11,
-3050000,5.4201e-11,
-2950000,5.3138e-11,
-2850000,5.477e-11,
-2750000,5.5319e-11,
-2650000,5.6527e-11,
-2550000,5.5754e-11,
-2450000,5.8562e-11,
-2350000,5.7325e-11,
-2250000,5.8628e-11,
-2150000,5.7336e-11,
-2050000,5.8747e-11,
-1950000,5.9031e-11,
-1850000,5.8995e-11,
-1750000,5.8435e-11,
-1650000,5.927e-11,
-1550000,5.898e-11,
-1450000,5.7471e-11,
-1350000,5.7203e-11,
-1250000,5.7949e-11,
-1150000,5.6721e-11,
-1050000,5.522e-11,
-950000,5.5906e-11,
-850000,5.5619e-11,
-750000,5.4245e-11,
-650000,5.3821e-11,
-550000,5.382e-11,
-450000,5.2438e-11,
-350000,5.1762e-11,
-250000,5.1064e-11,
-150000,5.0385e-11,
-50000,5.0639e-11,
50000,4.9041e-11,
150000,4.9684e-11,
