General parameters:
Start time: 2023              8             28              3             33      32.786909
Finish time: 2023              8             28              3             39      29.356356
Dwell time (ms): 3000.000000
Source chamber pressure: 2.00e+3
Differential chamber pressure: 6.34e-07
Sample chamber pressure: 3.58e-08
Example position (nm): -3511010.458467,307882.702920,-1000000.000000
Rotation angle (udeg): 87500195.000000
==========
Instrument status: 
0:Data Directory:/icon/data/2023_08_MoS2_5um_hbn_sub/
1:Sample:MoS2
2:Comments:no
3:PinholePlate:#C13
4:z_Zero:4200
5:Operator:djw77/nav31/kw570
==========
zscan inputs: 
z_sep:50000
z_range:200000 -5000000
data_path:/icon/data/2023_08_MoS2_5um_hbn_sub/
example_pos:-3511010.4585      307882.70292          -1000000
N_dwell:200
sampling_period:15
make_plots:1
m1:0.98976
m2:-0.0073571
==========
Detector params:
Sampling period (ms): 15.000000
N dwell: 200.000000
Filament current (A): 1.540000
Filament emission (mA): 1.900152
Solenoid current (A): NaN
Solenoid shim current (A): NaN
Lens params:
0  685
1  300
2  125
3      -0.002
4       -0.01
5       0.012
6         0.8
7         2.1
8         2.8
9  3000
10  1450
11         0.85
12   0
==========
Data:
z(nm),I(A)
200000,1.0435e-10,
100000,9.8476e-11,
0,8.902e-11,
-100000,7.9475e-11,
-200000,7.1772e-11,
-300000,6.4858e-11,
-400000,6.0474e-11,
-500000,5.9992e-11,
-600000,6.7033e-11,
-700000,8.7783e-11,
-800000,1.2284e-10,
-900000,1.6175e-10,
-1000000,1.7755e-10,
-1100000,1.6267e-10,
-1200000,1.2157e-10,
-1300000,9.0051e-11,
-1400000,7.2492e-11,
-1500000,6.3863e-11,
-1600000,5.8083e-11,
-1700000,5.6636e-11,
-1800000,5.4732e-11,
-1900000,5.4767e-11,
-2000000,5.3559e-11,
-2100000,5.405e-11,
-2200000,5.591e-11,
-2300000,6.1922e-11,
-2400000,6.8995e-11,
-2500000,7.4134e-11,
-2600000,7.1508e-11,
-2700000,6.4085e-11,
-2800000,5.731e-11,
-2900000,4.8947e-11,
-3000000,4.5358e-11,
-3100000,4.4742e-11,
-3200000,4.5102e-11,
-3300000,4.7243e-11,
-3400000,4.949e-11,
-3500000,5.0363e-11,
-3600000,5.0836e-11,
-3700000,4.9277e-11,
-3800000,4.4794e-11,
-3900000,4.0608e-11,
-4000000,3.8256e-11,
-4100000,3.5192e-11,
-4200000,3.3031e-11,
-4300000,3.1239e-11,
-4400000,3.1393e-11,
-4500000,2.9974e-11,
-4600000,2.8395e-11,
-4700000,2.9483e-11,
-4800000,2.8338e-11,
-4900000,2.839e-11,
-5000000,2.7137e-11,
-4950000,2.7027e-11,
-4850000,2.7368e-11,
-4750000,2.8281e-11,
-4650000,2.8944e-11,
-4550000,3.0167e-11,
-4450000,2.9956e-11,
-4350000,3.1384e-11,
-4250000,3.2176e-11,
-4150000,3.2937e-11,
-4050000,3.5611e-11,
-3950000,3.8624e-11,
-3850000,4.2353e-11,
-3750000,4.6252e-11,
-3650000,4.9756e-11,
-3550000,5.1313e-11,
-3450000,5.092e-11,
-3350000,4.9036e-11,
-3250000,4.6694e-11,
-3150000,4.46e-11,
-3050000,4.4134e-11,
-2950000,4.6866e-11,
-2850000,5.1468e-11,
-2750000,5.9792e-11,
-2650000,6.6386e-11,
-2550000,7.2067e-11,
-2450000,7.1417e-11,
-2350000,6.6881e-11,
-2250000,6.0811e-11,
-2150000,5.5755e-11,
-2050000,5.4783e-11,
-1950000,5.4466e-11,
-1850000,5.5983e-11,
-1750000,5.5908e-11,
-1650000,5.7152e-11,
-1550000,5.9964e-11,
-1450000,6.6798e-11,
-1350000,7.8897e-11,
-1250000,1.0215e-10,
-1150000,1.355e-10,
-1050000,1.7182e-10,
-950000,1.7617e-10,
-850000,1.5234e-10,
-750000,1.0933e-10,
-650000,7.9424e-11,
-550000,6.4474e-11,
-450000,6.032e-11,
-350000,6.1547e-11,
-250000,6.5507e-11,
-150000,7.3062e-11,
-50000,8.1281e-11,
50000,9.1678e-11,
150000,1.0236e-10,
