General parameters:
Start time: 2023              8             29              6             32      54.494085
Finish time: 2023              8             29              6             39      58.418458
Dwell time (ms): 3000.000000
Source chamber pressure: 2.00e+3
Differential chamber pressure: 6.02e-07
Sample chamber pressure: 3.58e-08
Example position (nm): -2729000.000000,113800.000000,-1000000.000000
Rotation angle (udeg): 139999795.000000
==========
Instrument status: 
0:Data Directory:/icon/data/2023_08_MoS2_5um_hbn_sub/
1:Sample:MoS2
2:Comments:no
3:PinholePlate:#C13
4:z_Zero:4200
5:Operator:djw77/nav31/kw570
==========
zscan inputs: 
z_sep:50000
z_range:200000 -6000000
data_path:/icon/data/2023_08_MoS2_5um_hbn_sub/
example_pos:-2729000   113800 -1000000
N_dwell:200
sampling_period:15
make_plots:1
m1:0.98976
m2:-0.0073571
==========
Detector params:
Sampling period (ms): 15.000000
N dwell: 200.000000
Filament current (A): 1.540000
Filament emission (mA): 1.925802
Solenoid current (A): NaN
Solenoid shim current (A): NaN
Lens params:
0  685
1  300
2  125
3      -0.002
4       -0.01
5       0.012
6         0.8
7         2.1
8         2.8
9  3000
10  1450
11         0.85
12   0
==========
Data:
z(nm),I(A)
200000,6.2489e-11,
100000,6.345e-11,
0,6.374e-11,
-100000,6.3781e-11,
-200000,6.2939e-11,
-300000,6.3973e-11,
-400000,6.3902e-11,
-500000,6.4629e-11,
-600000,6.5726e-11,
-700000,6.5952e-11,
-800000,6.6057e-11,
-900000,6.6218e-11,
-1000000,6.6241e-11,
-1100000,6.6117e-11,
-1200000,6.7293e-11,
-1300000,6.6544e-11,
-1400000,6.6235e-11,
-1500000,6.7517e-11,
-1600000,6.6212e-11,
-1700000,6.7122e-11,
-1800000,6.639e-11,
-1900000,6.7103e-11,
-2000000,6.7304e-11,
-2100000,6.585e-11,
-2200000,6.7143e-11,
-2300000,6.4412e-11,
-2400000,6.4888e-11,
-2500000,6.3491e-11,
-2600000,6.2605e-11,
-2700000,6.202e-11,
-2800000,6.2328e-11,
-2900000,6.1321e-11,
-3000000,6.0022e-11,
-3100000,5.9563e-11,
-3200000,5.7286e-11,
-3300000,5.6894e-11,
-3400000,5.6421e-11,
-3500000,5.5658e-11,
-3600000,5.4644e-11,
-3700000,5.3926e-11,
-3800000,5.2497e-11,
-3900000,5.2923e-11,
-4000000,5.2208e-11,
-4100000,5.0262e-11,
-4200000,4.9358e-11,
-4300000,4.8961e-11,
-4400000,4.7902e-11,
-4500000,4.6487e-11,
-4600000,4.6049e-11,
-4700000,4.5303e-11,
-4800000,4.4459e-11,
-4900000,4.4626e-11,
-5000000,4.3172e-11,
-5100000,4.2044e-11,
-5200000,4.1752e-11,
-5300000,4.232e-11,
-5400000,4.0038e-11,
-5500000,3.99e-11,
-5600000,3.8663e-11,
-5700000,3.8667e-11,
-5800000,3.8184e-11,
-5900000,3.823e-11,
-6000000,3.766e-11,
-5950000,3.6954e-11,
-5850000,3.7826e-11,
-5750000,3.8899e-11,
-5650000,3.8158e-11,
-5550000,3.9767e-11,
-5450000,4.0282e-11,
-5350000,4.1647e-11,
-5250000,4.214e-11,
-5150000,4.3299e-11,
-5050000,4.2153e-11,
-4950000,4.3442e-11,
-4850000,4.4136e-11,
-4750000,4.4539e-11,
-4650000,4.479e-11,
-4550000,4.6562e-11,
-4450000,4.702e-11,
-4350000,4.7512e-11,
-4250000,4.9282e-11,
-4150000,4.9844e-11,
-4050000,5.1536e-11,
-3950000,5.2371e-11,
-3850000,5.2682e-11,
-3750000,5.2135e-11,
-3650000,5.4264e-11,
-3550000,5.4474e-11,
-3450000,5.6979e-11,
-3350000,5.7502e-11,
-3250000,5.7883e-11,
-3150000,5.9439e-11,
-3050000,6.017e-11,
-2950000,6.201e-11,
-2850000,6.0863e-11,
-2750000,6.4118e-11,
-2650000,6.2633e-11,
-2550000,6.3722e-11,
-2450000,6.4428e-11,
-2350000,6.6572e-11,
-2250000,6.4794e-11,
-2150000,6.5748e-11,
-2050000,6.6149e-11,
-1950000,6.606e-11,
-1850000,6.7541e-11,
-1750000,6.7634e-11,
-1650000,6.7244e-11,
-1550000,6.689e-11,
-1450000,6.7357e-11,
-1350000,6.7662e-11,
-1250000,6.6612e-11,
-1150000,6.6833e-11,
-1050000,6.6209e-11,
-950000,6.7608e-11,
-850000,6.7061e-11,
-750000,6.499e-11,
-650000,6.5695e-11,
-550000,6.4921e-11,
-450000,6.5726e-11,
-350000,6.5524e-11,
-250000,6.4779e-11,
-150000,6.4842e-11,
-50000,6.4565e-11,
50000,6.3951e-11,
150000,6.2528e-11,
