General parameters:
Start time: 2023              8             18             13             48      20.948037
Finish time: 2023              8             18             13             54      17.330143
Dwell time (ms): 3000.000000
Source chamber pressure: 2.00e+3
Differential chamber pressure: 7.89e-07
Sample chamber pressure: 3.88e-08
Example position (nm): -3626285.198215,259578.042045,-1000000.000000
Rotation angle (udeg): 79999950.000000
==========
Instrument status: 
0:Data Directory:/icon/data/2023_08_MoS2_5um_hbn_sub/
1:Sample:MoS2
2:Comments:no
3:PinholePlate:#C13
4:z_Zero:4200
5:Operator:djw77/nav31/kw570
==========
zscan inputs: 
z_sep:50000
z_range:200000 -5000000
data_path:/icon/data/2023_08_MoS2_5um_hbn_sub/
example_pos:-3626285.1982      259578.04204          -1000000
N_dwell:200
sampling_period:15
make_plots:1
m1:0.98976
m2:-0.0073571
==========
Detector params:
Sampling period (ms): 15.000000
N dwell: 200.000000
Filament current (A): 1.540000
Filament emission (mA): 1.672038
Solenoid current (A): NaN
Solenoid shim current (A): NaN
Lens params:
0  685
1  300
2  125
3      -0.002
4       -0.01
5       0.012
6         0.8
7         2.1
8         2.8
9  3000
10  1450
11         0.85
12   0
==========
Data:
z(nm),I(A)
200000,8.783e-11,
100000,8.1611e-11,
0,7.2688e-11,
-100000,6.5121e-11,
-200000,5.9307e-11,
-300000,5.3814e-11,
-400000,5.1161e-11,
-500000,4.8583e-11,
-600000,5.2176e-11,
-700000,6.1286e-11,
-800000,7.9103e-11,
-900000,1.0179e-10,
-1000000,1.1501e-10,
-1100000,1.0866e-10,
-1200000,8.7778e-11,
-1300000,7.0603e-11,
-1400000,5.8576e-11,
-1500000,5.4508e-11,
-1600000,5.3231e-11,
-1700000,5.2888e-11,
-1800000,5.367e-11,
-1900000,5.1639e-11,
-2000000,5.1529e-11,
-2100000,4.8727e-11,
-2200000,4.6772e-11,
-2300000,4.6044e-11,
-2400000,4.5338e-11,
-2500000,4.5273e-11,
-2600000,4.4008e-11,
-2700000,4.4221e-11,
-2800000,4.3053e-11,
-2900000,4.278e-11,
-3000000,4.1935e-11,
-3100000,4.0968e-11,
-3200000,4.1153e-11,
-3300000,4.0733e-11,
-3400000,4.1671e-11,
-3500000,4.0837e-11,
-3600000,3.9457e-11,
-3700000,3.7539e-11,
-3800000,3.5137e-11,
-3900000,3.3138e-11,
-4000000,3.1249e-11,
-4100000,2.9333e-11,
-4200000,2.7991e-11,
-4300000,2.8048e-11,
-4400000,2.7431e-11,
-4500000,2.752e-11,
-4600000,2.7559e-11,
-4700000,2.6859e-11,
-4800000,2.6365e-11,
-4900000,2.6572e-11,
-5000000,2.5931e-11,
-4950000,2.5993e-11,
-4850000,2.6625e-11,
-4750000,2.7155e-11,
-4650000,2.764e-11,
-4550000,2.7161e-11,
-4450000,2.8251e-11,
-4350000,2.7717e-11,
-4250000,2.9043e-11,
-4150000,2.8972e-11,
-4050000,3.0116e-11,
-3950000,3.1908e-11,
-3850000,3.4091e-11,
-3750000,3.5698e-11,
-3650000,3.874e-11,
-3550000,3.9417e-11,
-3450000,4.0551e-11,
-3350000,4.0495e-11,
-3250000,4.0508e-11,
-3150000,4.0265e-11,
-3050000,4.1177e-11,
-2950000,4.2138e-11,
-2850000,4.2873e-11,
-2750000,4.3518e-11,
-2650000,4.5223e-11,
-2550000,4.5552e-11,
-2450000,4.5187e-11,
-2350000,4.6585e-11,
-2250000,4.5935e-11,
-2150000,4.7828e-11,
-2050000,4.9913e-11,
-1950000,5.1571e-11,
-1850000,5.2742e-11,
-1750000,5.2621e-11,
-1650000,5.1784e-11,
-1550000,5.3281e-11,
-1450000,5.5232e-11,
-1350000,6.2199e-11,
-1250000,7.3762e-11,
-1150000,8.9718e-11,
-1050000,1.0673e-10,
-950000,1.0561e-10,
-850000,8.6948e-11,
-750000,6.8716e-11,
-650000,5.7215e-11,
-550000,4.9903e-11,
-450000,4.9247e-11,
-350000,5.0743e-11,
-250000,5.4662e-11,
-150000,5.8625e-11,
-50000,6.4333e-11,
50000,7.4406e-11,
150000,7.733e-11,
