General parameters:
Start time: 2023              8             28              4             21       47.54563
Finish time: 2023              8             28              4             27      44.371423
Dwell time (ms): 3000.000000
Source chamber pressure: 2.00e+3
Differential chamber pressure: 6.32e-07
Sample chamber pressure: 3.61e-08
Example position (nm): -3178534.021777,322084.867934,-1000000.000000
Rotation angle (udeg): 107499930.000000
==========
Instrument status: 
0:Data Directory:/icon/data/2023_08_MoS2_5um_hbn_sub/
1:Sample:MoS2
2:Comments:no
3:PinholePlate:#C13
4:z_Zero:4200
5:Operator:djw77/nav31/kw570
==========
zscan inputs: 
z_sep:50000
z_range:200000 -5000000
data_path:/icon/data/2023_08_MoS2_5um_hbn_sub/
example_pos:-3178534.0218      322084.86793          -1000000
N_dwell:200
sampling_period:15
make_plots:1
m1:0.98976
m2:-0.0073571
==========
Detector params:
Sampling period (ms): 15.000000
N dwell: 200.000000
Filament current (A): 1.540000
Filament emission (mA): 1.902888
Solenoid current (A): NaN
Solenoid shim current (A): NaN
Lens params:
0  685
1  300
2  125
3      -0.002
4       -0.01
5       0.012
6         0.8
7         2.1
8         2.8
9  3000
10  1450
11         0.85
12   0
==========
Data:
z(nm),I(A)
200000,5.0765e-11,
100000,5.2582e-11,
0,5.193e-11,
-100000,5.2083e-11,
-200000,5.1811e-11,
-300000,5.4202e-11,
-400000,5.6844e-11,
-500000,6.1591e-11,
-600000,7.3978e-11,
-700000,9.5975e-11,
-800000,1.2879e-10,
-900000,1.5464e-10,
-1000000,1.5155e-10,
-1100000,1.2017e-10,
-1200000,9.3195e-11,
-1300000,7.7472e-11,
-1400000,6.9781e-11,
-1500000,7.1465e-11,
-1600000,8.0654e-11,
-1700000,9.0742e-11,
-1800000,9.0149e-11,
-1900000,8.062e-11,
-2000000,6.8079e-11,
-2100000,5.9463e-11,
-2200000,5.3756e-11,
-2300000,5.3829e-11,
-2400000,5.332e-11,
-2500000,5.323e-11,
-2600000,5.4625e-11,
-2700000,5.5241e-11,
-2800000,5.25e-11,
-2900000,5.3028e-11,
-3000000,5.2619e-11,
-3100000,5.5905e-11,
-3200000,5.8769e-11,
-3300000,6.535e-11,
-3400000,7.0956e-11,
-3500000,7.0082e-11,
-3600000,6.881e-11,
-3700000,6.1951e-11,
-3800000,5.4409e-11,
-3900000,4.6936e-11,
-4000000,4.1282e-11,
-4100000,3.755e-11,
-4200000,3.7416e-11,
-4300000,3.5802e-11,
-4400000,3.5343e-11,
-4500000,3.4247e-11,
-4600000,3.4354e-11,
-4700000,3.3606e-11,
-4800000,3.2583e-11,
-4900000,3.1993e-11,
-5000000,3.1294e-11,
-4950000,3.0831e-11,
-4850000,3.2359e-11,
-4750000,3.3516e-11,
-4650000,3.2928e-11,
-4550000,3.4916e-11,
-4450000,3.4371e-11,
-4350000,3.4784e-11,
-4250000,3.4537e-11,
-4150000,3.7608e-11,
-4050000,3.9885e-11,
-3950000,4.3703e-11,
-3850000,4.9282e-11,
-3750000,5.6962e-11,
-3650000,6.4075e-11,
-3550000,6.9815e-11,
-3450000,7.3025e-11,
-3350000,6.8977e-11,
-3250000,6.3492e-11,
-3150000,5.8272e-11,
-3050000,5.4767e-11,
-2950000,5.2843e-11,
-2850000,5.3036e-11,
-2750000,5.3474e-11,
-2650000,5.4087e-11,
-2550000,5.4425e-11,
-2450000,5.3444e-11,
-2350000,5.3788e-11,
-2250000,5.2244e-11,
-2150000,5.477e-11,
-2050000,6.1069e-11,
-1950000,7.2624e-11,
-1850000,8.561e-11,
-1750000,9.2027e-11,
-1650000,8.6997e-11,
-1550000,7.6369e-11,
-1450000,6.8316e-11,
-1350000,7.0954e-11,
-1250000,8.1731e-11,
-1150000,1.0128e-10,
-1050000,1.3368e-10,
-950000,1.5466e-10,
-850000,1.4914e-10,
-750000,1.1346e-10,
-650000,8.6386e-11,
-550000,6.9319e-11,
-450000,5.9374e-11,
-350000,5.4927e-11,
-250000,5.4017e-11,
-150000,5.2488e-11,
-50000,5.1654e-11,
50000,5.1868e-11,
150000,5.0824e-11,
