General parameters:
Start time: 2023              8             21             22             39      47.729838
Finish time: 2023              8             21             22             45      44.251853
Dwell time (ms): 3000.000000
Source chamber pressure: 2.00e+3
Differential chamber pressure: 7.98e-07
Sample chamber pressure: 3.79e-08
Example position (nm): -3246005.038121,320819.144693,-1000000.000000
Rotation angle (udeg): 104999985.000000
==========
Instrument status: 
0:Data Directory:/icon/data/2023_08_MoS2_5um_hbn_sub/
1:Sample:MoS2
2:Comments:no
3:PinholePlate:#C13
4:z_Zero:4200
5:Operator:djw77/nav31/kw570
==========
zscan inputs: 
z_sep:50000
z_range:200000 -5000000
data_path:/icon/data/2023_08_MoS2_5um_hbn_sub/
example_pos:-3246005.0381      320819.14469          -1000000
N_dwell:200
sampling_period:15
make_plots:0
m1:0.98976
m2:-0.0073571
==========
Detector params:
Sampling period (ms): 15.000000
N dwell: 200.000000
Filament current (A): 1.540000
Filament emission (mA): 1.739412
Solenoid current (A): NaN
Solenoid shim current (A): NaN
Lens params:
0  685
1  300
2  125
3      -0.002
4       -0.01
5       0.012
6         0.8
7         2.1
8         2.8
9  3000
10  1450
11         0.85
12   0
==========
Data:
z(nm),I(A)
200000,4.7495e-11,
100000,4.7823e-11,
0,4.7813e-11,
-100000,4.7921e-11,
-200000,4.8744e-11,
-300000,5.0193e-11,
-400000,5.0476e-11,
-500000,5.44e-11,
-600000,5.9868e-11,
-700000,6.7706e-11,
-800000,9.3571e-11,
-900000,1.1678e-10,
-1000000,1.109e-10,
-1100000,9.01e-11,
-1200000,7.6365e-11,
-1300000,6.3138e-11,
-1400000,5.737e-11,
-1500000,5.8492e-11,
-1600000,6.0026e-11,
-1700000,6.2394e-11,
-1800000,6.0478e-11,
-1900000,5.4081e-11,
-2000000,5.1711e-11,
-2100000,4.9547e-11,
-2200000,4.7696e-11,
-2300000,4.7241e-11,
-2400000,4.7711e-11,
-2500000,4.8008e-11,
-2600000,4.6479e-11,
-2700000,4.5379e-11,
-2800000,4.5586e-11,
-2900000,4.4725e-11,
-3000000,4.4304e-11,
-3100000,4.3545e-11,
-3200000,4.4023e-11,
-3300000,4.623e-11,
-3400000,4.568e-11,
-3500000,4.2855e-11,
-3600000,4.0457e-11,
-3700000,4.1438e-11,
-3800000,3.9426e-11,
-3900000,3.7421e-11,
-4000000,3.5383e-11,
-4100000,3.5391e-11,
-4200000,3.5335e-11,
-4300000,3.3781e-11,
-4400000,3.3946e-11,
-4500000,3.3107e-11,
-4600000,3.1446e-11,
-4700000,3.1807e-11,
-4800000,3.1311e-11,
-4900000,3.0711e-11,
-5000000,2.9231e-11,
-4950000,2.9598e-11,
-4850000,3.0483e-11,
-4750000,3.0829e-11,
-4650000,3.145e-11,
-4550000,3.1836e-11,
-4450000,3.248e-11,
-4350000,3.4197e-11,
-4250000,3.446e-11,
-4150000,3.4783e-11,
-4050000,3.5136e-11,
-3950000,3.636e-11,
-3850000,3.9101e-11,
-3750000,4.0153e-11,
-3650000,4.2855e-11,
-3550000,4.3658e-11,
-3450000,4.5394e-11,
-3350000,4.7933e-11,
-3250000,4.6739e-11,
-3150000,4.5748e-11,
-3050000,4.4866e-11,
-2950000,4.5199e-11,
-2850000,4.4991e-11,
-2750000,4.6164e-11,
-2650000,4.6695e-11,
-2550000,4.7109e-11,
-2450000,4.8362e-11,
-2350000,4.7598e-11,
-2250000,4.7839e-11,
-2150000,4.7949e-11,
-2050000,5.0155e-11,
-1950000,5.2663e-11,
-1850000,5.6888e-11,
-1750000,6.2862e-11,
-1650000,6.0647e-11,
-1550000,5.9745e-11,
-1450000,5.8253e-11,
-1350000,5.7235e-11,
-1250000,6.4486e-11,
-1150000,7.8702e-11,
-1050000,9.5728e-11,
-950000,1.0888e-10,
-850000,1.0421e-10,
-750000,7.6897e-11,
-650000,6.2925e-11,
-550000,5.4734e-11,
-450000,5.1213e-11,
-350000,5.0291e-11,
-250000,4.9574e-11,
-150000,4.8961e-11,
-50000,4.7968e-11,
50000,4.8143e-11,
150000,4.7976e-11,
