General parameters:
Start time: 2023              8             19             15             33      34.080508
Finish time: 2023              8             19             15             39      32.254834
Dwell time (ms): 3000.000000
Source chamber pressure: 2.00e+3
Differential chamber pressure: 7.96e-07
Sample chamber pressure: 3.84e-08
Example position (nm): -3508062.289875,272999.400374,-1000000.000000
Rotation angle (udeg): 87500075.000000
==========
Instrument status: 
0:Data Directory:/icon/data/2023_08_MoS2_5um_hbn_sub/
1:Sample:MoS2
2:Comments:no
3:PinholePlate:#C13
4:z_Zero:4200
5:Operator:djw77/nav31/kw570
==========
zscan inputs: 
z_sep:50000
z_range:200000 -5000000
data_path:/icon/data/2023_08_MoS2_5um_hbn_sub/
example_pos:-3508062.2899      272999.40037          -1000000
N_dwell:200
sampling_period:15
make_plots:0
m1:0.98976
m2:-0.0073571
==========
Detector params:
Sampling period (ms): 15.000000
N dwell: 200.000000
Filament current (A): 1.540000
Filament emission (mA): 1.686744
Solenoid current (A): NaN
Solenoid shim current (A): NaN
Lens params:
0  685
1  300
2  125
3      -0.002
4       -0.01
5       0.012
6         0.8
7         2.1
8         2.8
9  3000
10  1450
11         0.85
12   0
==========
Data:
z(nm),I(A)
200000,7.8944e-11,
100000,6.6996e-11,
0,6.0393e-11,
-100000,6.1605e-11,
-200000,5.7965e-11,
-300000,5.3801e-11,
-400000,5.3124e-11,
-500000,5.1846e-11,
-600000,5.7e-11,
-700000,7.0449e-11,
-800000,9.8952e-11,
-900000,1.2826e-10,
-1000000,1.3374e-10,
-1100000,1.1824e-10,
-1200000,8.5468e-11,
-1300000,6.6757e-11,
-1400000,5.7691e-11,
-1500000,5.2592e-11,
-1600000,5.0354e-11,
-1700000,4.9222e-11,
-1800000,5.0478e-11,
-1900000,4.8927e-11,
-2000000,4.7845e-11,
-2100000,4.8112e-11,
-2200000,4.9917e-11,
-2300000,5.258e-11,
-2400000,5.5342e-11,
-2500000,5.7595e-11,
-2600000,5.6179e-11,
-2700000,5.2123e-11,
-2800000,4.7423e-11,
-2900000,4.2538e-11,
-3000000,4.059e-11,
-3100000,4.0324e-11,
-3200000,4.0288e-11,
-3300000,4.266e-11,
-3400000,4.4022e-11,
-3500000,4.541e-11,
-3600000,4.4623e-11,
-3700000,4.3091e-11,
-3800000,3.9574e-11,
-3900000,3.5915e-11,
-4000000,3.2967e-11,
-4100000,3.0386e-11,
-4200000,2.9285e-11,
-4300000,2.7749e-11,
-4400000,2.7335e-11,
-4500000,2.7364e-11,
-4600000,2.7257e-11,
-4700000,2.6552e-11,
-4800000,2.5436e-11,
-4900000,2.5869e-11,
-5000000,2.3778e-11,
-4950000,2.4434e-11,
-4850000,2.6258e-11,
-4750000,2.5747e-11,
-4650000,2.6852e-11,
-4550000,2.6963e-11,
-4450000,2.8617e-11,
-4350000,2.8741e-11,
-4250000,2.9027e-11,
-4150000,3.0181e-11,
-4050000,3.2492e-11,
-3950000,3.3794e-11,
-3850000,3.873e-11,
-3750000,3.9891e-11,
-3650000,4.3968e-11,
-3550000,4.5533e-11,
-3450000,4.58e-11,
-3350000,4.4543e-11,
-3250000,4.2162e-11,
-3150000,4.0689e-11,
-3050000,4.0199e-11,
-2950000,4.1195e-11,
-2850000,4.3757e-11,
-2750000,4.8336e-11,
-2650000,5.3483e-11,
-2550000,5.698e-11,
-2450000,5.6948e-11,
-2350000,5.3804e-11,
-2250000,5.1533e-11,
-2150000,4.8933e-11,
-2050000,4.7852e-11,
-1950000,4.7433e-11,
-1850000,4.7944e-11,
-1750000,4.7848e-11,
-1650000,4.9527e-11,
-1550000,5.2497e-11,
-1450000,5.5449e-11,
-1350000,6.2421e-11,
-1250000,7.2508e-11,
-1150000,9.7926e-11,
-1050000,1.2436e-10,
-950000,1.3513e-10,
-850000,1.1958e-10,
-750000,8.4084e-11,
-650000,6.3309e-11,
-550000,5.3284e-11,
-450000,5.2489e-11,
-350000,5.1655e-11,
-250000,5.4203e-11,
-150000,5.7224e-11,
-50000,5.8657e-11,
50000,6.1945e-11,
150000,7.3138e-11,
