General parameters:
Start time: 2023              8             22              1             51      57.381479
Finish time: 2023              8             22              1             57      54.925943
Dwell time (ms): 3000.000000
Source chamber pressure: 2.00e+3
Differential chamber pressure: 7.98e-07
Sample chamber pressure: 3.78e-08
Example position (nm): -3504547.754009,309559.853098,-1000000.000000
Rotation angle (udeg): 87499990.000000
==========
Instrument status: 
0:Data Directory:/icon/data/2023_08_MoS2_5um_hbn_sub/
1:Sample:MoS2
2:Comments:no
3:PinholePlate:#C13
4:z_Zero:4200
5:Operator:djw77/nav31/kw570
==========
zscan inputs: 
z_sep:50000
z_range:200000 -5000000
data_path:/icon/data/2023_08_MoS2_5um_hbn_sub/
example_pos:-3504547.754       309559.8531          -1000000
N_dwell:200
sampling_period:15
make_plots:0
m1:0.98976
m2:-0.0073571
==========
Detector params:
Sampling period (ms): 15.000000
N dwell: 200.000000
Filament current (A): 1.540000
Filament emission (mA): 1.752066
Solenoid current (A): NaN
Solenoid shim current (A): NaN
Lens params:
0  685
1  300
2  125
3      -0.002
4       -0.01
5       0.012
6         0.8
7         2.1
8         2.8
9  3000
10  1450
11         0.85
12   0
==========
Data:
z(nm),I(A)
200000,5.808e-11,
100000,5.3644e-11,
0,5.3267e-11,
-100000,5.6932e-11,
-200000,5.9139e-11,
-300000,6.2517e-11,
-400000,6.2079e-11,
-500000,6.4163e-11,
-600000,6.6491e-11,
-700000,7.4293e-11,
-800000,9.2625e-11,
-900000,1.1891e-10,
-1000000,1.2127e-10,
-1100000,1.0533e-10,
-1200000,8.4146e-11,
-1300000,6.9853e-11,
-1400000,6.7257e-11,
-1500000,6.7211e-11,
-1600000,6.5873e-11,
-1700000,6.4149e-11,
-1800000,6.3003e-11,
-1900000,5.9835e-11,
-2000000,5.8777e-11,
-2100000,5.742e-11,
-2200000,5.7422e-11,
-2300000,5.8765e-11,
-2400000,6.2133e-11,
-2500000,6.1468e-11,
-2600000,6.0586e-11,
-2700000,5.7903e-11,
-2800000,5.3151e-11,
-2900000,4.8976e-11,
-3000000,4.7867e-11,
-3100000,4.4528e-11,
-3200000,4.3688e-11,
-3300000,4.4521e-11,
-3400000,4.5509e-11,
-3500000,4.6016e-11,
-3600000,4.5614e-11,
-3700000,4.2664e-11,
-3800000,4.0479e-11,
-3900000,3.7633e-11,
-4000000,3.4267e-11,
-4100000,3.1863e-11,
-4200000,3.0475e-11,
-4300000,2.9247e-11,
-4400000,2.8133e-11,
-4500000,2.7509e-11,
-4600000,2.6539e-11,
-4700000,2.6127e-11,
-4800000,2.5476e-11,
-4900000,2.4439e-11,
-5000000,2.4691e-11,
-4950000,2.4313e-11,
-4850000,2.5536e-11,
-4750000,2.5969e-11,
-4650000,2.6964e-11,
-4550000,2.6667e-11,
-4450000,2.7384e-11,
-4350000,2.8719e-11,
-4250000,2.9347e-11,
-4150000,3.1202e-11,
-4050000,3.1919e-11,
-3950000,3.5011e-11,
-3850000,3.855e-11,
-3750000,4.2273e-11,
-3650000,4.4208e-11,
-3550000,4.5014e-11,
-3450000,4.5871e-11,
-3350000,4.3702e-11,
-3250000,4.336e-11,
-3150000,4.1738e-11,
-3050000,4.3912e-11,
-2950000,4.6215e-11,
-2850000,4.9255e-11,
-2750000,5.4118e-11,
-2650000,5.8744e-11,
-2550000,6.3335e-11,
-2450000,6.2435e-11,
-2350000,6.0166e-11,
-2250000,5.7296e-11,
-2150000,5.5835e-11,
-2050000,5.4556e-11,
-1950000,5.7618e-11,
-1850000,6.0309e-11,
-1750000,6.1704e-11,
-1650000,6.3703e-11,
-1550000,6.6055e-11,
-1450000,6.8545e-11,
-1350000,7.1698e-11,
-1250000,7.4098e-11,
-1150000,9.5732e-11,
-1050000,1.1597e-10,
-950000,1.3185e-10,
-850000,1.1445e-10,
-750000,8.4459e-11,
-650000,7.0373e-11,
-550000,6.5993e-11,
-450000,6.438e-11,
-350000,6.327e-11,
-250000,6.0859e-11,
-150000,6.0582e-11,
-50000,5.7529e-11,
50000,5.6069e-11,
150000,5.9378e-11,
