General parameters:
Start time: 2023              8             18             20              9       30.24106
Finish time: 2023              8             18             20             15      26.559438
Dwell time (ms): 3000.000000
Source chamber pressure: 2.00e+3
Differential chamber pressure: 7.94e-07
Sample chamber pressure: 3.84e-08
Example position (nm): -2904014.881868,198585.588822,-1000000.000000
Rotation angle (udeg): 125000035.000000
==========
Instrument status: 
0:Data Directory:/icon/data/2023_08_MoS2_5um_hbn_sub/
1:Sample:MoS2
2:Comments:no
3:PinholePlate:#C13
4:z_Zero:4200
5:Operator:djw77/nav31/kw570
==========
zscan inputs: 
z_sep:50000
z_range:200000 -5000000
data_path:/icon/data/2023_08_MoS2_5um_hbn_sub/
example_pos:-2904014.8819      198585.58882          -1000000
N_dwell:200
sampling_period:15
make_plots:0
m1:0.98976
m2:-0.0073571
==========
Detector params:
Sampling period (ms): 15.000000
N dwell: 200.000000
Filament current (A): 1.540000
Filament emission (mA): 1.671696
Solenoid current (A): NaN
Solenoid shim current (A): NaN
Lens params:
0  685
1  300
2  125
3      -0.002
4       -0.01
5       0.012
6         0.8
7         2.1
8         2.8
9  3000
10  1450
11         0.85
12   0
==========
Data:
z(nm),I(A)
200000,4.0002e-11,
100000,4.1312e-11,
0,4.0856e-11,
-100000,4.1025e-11,
-200000,4.2232e-11,
-300000,4.2123e-11,
-400000,4.1723e-11,
-500000,4.2876e-11,
-600000,4.2761e-11,
-700000,4.1951e-11,
-800000,4.2557e-11,
-900000,4.2615e-11,
-1000000,4.3287e-11,
-1100000,4.2937e-11,
-1200000,4.3401e-11,
-1300000,4.3575e-11,
-1400000,4.3199e-11,
-1500000,4.2876e-11,
-1600000,4.3648e-11,
-1700000,4.2011e-11,
-1800000,4.3117e-11,
-1900000,4.3298e-11,
-2000000,4.1836e-11,
-2100000,4.2669e-11,
-2200000,4.1756e-11,
-2300000,4.2327e-11,
-2400000,4.2128e-11,
-2500000,4.0891e-11,
-2600000,4.0548e-11,
-2700000,4.0232e-11,
-2800000,3.9239e-11,
-2900000,3.9357e-11,
-3000000,3.8991e-11,
-3100000,3.777e-11,
-3200000,3.6836e-11,
-3300000,3.6718e-11,
-3400000,3.5974e-11,
-3500000,3.5553e-11,
-3600000,3.4842e-11,
-3700000,3.4458e-11,
-3800000,3.3938e-11,
-3900000,3.3308e-11,
-4000000,3.1812e-11,
-4100000,3.1566e-11,
-4200000,3.0314e-11,
-4300000,3.0359e-11,
-4400000,3.0255e-11,
-4500000,3.0325e-11,
-4600000,2.9162e-11,
-4700000,2.776e-11,
-4800000,2.8277e-11,
-4900000,2.768e-11,
-5000000,2.7249e-11,
-4950000,2.702e-11,
-4850000,2.7695e-11,
-4750000,2.8119e-11,
-4650000,2.9198e-11,
-4550000,3.0007e-11,
-4450000,2.9196e-11,
-4350000,3.0135e-11,
-4250000,3.139e-11,
-4150000,3.1296e-11,
-4050000,3.1784e-11,
-3950000,3.2501e-11,
-3850000,3.3298e-11,
-3750000,3.4096e-11,
-3650000,3.517e-11,
-3550000,3.4818e-11,
-3450000,3.6397e-11,
-3350000,3.7144e-11,
-3250000,3.7643e-11,
-3150000,3.7416e-11,
-3050000,3.8273e-11,
-2950000,3.8489e-11,
-2850000,3.9251e-11,
-2750000,3.9844e-11,
-2650000,4.0778e-11,
-2550000,4.0338e-11,
-2450000,4.1307e-11,
-2350000,4.0268e-11,
-2250000,4.1297e-11,
-2150000,4.2542e-11,
-2050000,4.3169e-11,
-1950000,4.2952e-11,
-1850000,4.3211e-11,
-1750000,4.2862e-11,
-1650000,4.3069e-11,
-1550000,4.4216e-11,
-1450000,4.3201e-11,
-1350000,4.3026e-11,
-1250000,4.3261e-11,
-1150000,4.393e-11,
-1050000,4.2504e-11,
-950000,4.3011e-11,
-850000,4.2193e-11,
-750000,4.2566e-11,
-650000,4.2797e-11,
-550000,4.3072e-11,
-450000,4.227e-11,
-350000,4.1741e-11,
-250000,4.1432e-11,
-150000,4.1735e-11,
-50000,4.1974e-11,
50000,4.1012e-11,
150000,4.1942e-11,
