General parameters:
Start time: 2023              8             22             11              0      35.299327
Finish time: 2023              8             22             11              6      31.294157
Dwell time (ms): 3000.000000
Source chamber pressure: 2.00e+3
Differential chamber pressure: 7.97e-07
Sample chamber pressure: 3.84e-08
Example position (nm): -3930127.463814,390.596989,-1000000.000000
Rotation angle (udeg): 47500365.000000
==========
Instrument status: 
0:Data Directory:/icon/data/2023_08_MoS2_5um_hbn_sub/
1:Sample:MoS2
2:Comments:no
3:PinholePlate:#C13
4:z_Zero:4200
5:Operator:djw77/nav31/kw570
==========
zscan inputs: 
z_sep:50000
z_range:200000 -5000000
data_path:/icon/data/2023_08_MoS2_5um_hbn_sub/
example_pos:-3930127.4638      390.59698937          -1000000
N_dwell:200
sampling_period:15
make_plots:0
m1:0.98976
m2:-0.0073571
==========
Detector params:
Sampling period (ms): 15.000000
N dwell: 200.000000
Filament current (A): 1.540000
Filament emission (mA): 1.750014
Solenoid current (A): NaN
Solenoid shim current (A): NaN
Lens params:
0  685
1  300
2  125
3      -0.002
4       -0.01
5       0.012
6         0.8
7         2.1
8         2.8
9  3000
10  1450
11         0.85
12   0
==========
Data:
z(nm),I(A)
200000,4.1097e-11,
100000,3.8687e-11,
0,3.9073e-11,
-100000,3.9329e-11,
-200000,4.0247e-11,
-300000,4.0102e-11,
-400000,4.1007e-11,
-500000,4.1002e-11,
-600000,4.1395e-11,
-700000,4.1911e-11,
-800000,4.3286e-11,
-900000,4.2811e-11,
-1000000,4.2928e-11,
-1100000,4.3484e-11,
-1200000,4.371e-11,
-1300000,4.3149e-11,
-1400000,4.5383e-11,
-1500000,4.5831e-11,
-1600000,4.5718e-11,
-1700000,4.5772e-11,
-1800000,4.6054e-11,
-1900000,4.5847e-11,
-2000000,4.5283e-11,
-2100000,4.4989e-11,
-2200000,4.4864e-11,
-2300000,4.4152e-11,
-2400000,4.4975e-11,
-2500000,4.4072e-11,
-2600000,4.3369e-11,
-2700000,4.2437e-11,
-2800000,4.2223e-11,
-2900000,4.1889e-11,
-3000000,4.0991e-11,
-3100000,4.0575e-11,
-3200000,4.0049e-11,
-3300000,3.9339e-11,
-3400000,3.8291e-11,
-3500000,3.8657e-11,
-3600000,3.7723e-11,
-3700000,3.7058e-11,
-3800000,3.67e-11,
-3900000,3.4869e-11,
-4000000,3.5048e-11,
-4100000,3.5258e-11,
-4200000,3.3488e-11,
-4300000,3.3481e-11,
-4400000,3.2592e-11,
-4500000,3.1967e-11,
-4600000,3.1371e-11,
-4700000,3.0936e-11,
-4800000,3.0135e-11,
-4900000,3.0229e-11,
-5000000,2.9221e-11,
-4950000,2.9368e-11,
-4850000,3.0064e-11,
-4750000,3.0985e-11,
-4650000,3.1711e-11,
-4550000,3.2184e-11,
-4450000,3.3112e-11,
-4350000,3.3068e-11,
-4250000,3.3195e-11,
-4150000,3.309e-11,
-4050000,3.4951e-11,
-3950000,3.4997e-11,
-3850000,3.615e-11,
-3750000,3.662e-11,
-3650000,3.7106e-11,
-3550000,3.7227e-11,
-3450000,3.898e-11,
-3350000,3.9191e-11,
-3250000,3.9284e-11,
-3150000,4.0759e-11,
-3050000,4.1192e-11,
-2950000,4.1174e-11,
-2850000,4.1416e-11,
-2750000,4.2976e-11,
-2650000,4.2905e-11,
-2550000,4.3993e-11,
-2450000,4.3249e-11,
-2350000,4.4235e-11,
-2250000,4.4344e-11,
-2150000,4.5873e-11,
-2050000,4.6547e-11,
-1950000,4.6093e-11,
-1850000,4.6322e-11,
-1750000,4.5824e-11,
-1650000,4.574e-11,
-1550000,4.5383e-11,
-1450000,4.4799e-11,
-1350000,4.467e-11,
-1250000,4.5146e-11,
-1150000,4.4092e-11,
-1050000,4.4328e-11,
-950000,4.3445e-11,
-850000,4.37e-11,
-750000,4.2241e-11,
-650000,4.19e-11,
-550000,4.1831e-11,
-450000,4.1081e-11,
-350000,4.0541e-11,
-250000,4.0631e-11,
-150000,3.8882e-11,
-50000,3.977e-11,
50000,3.9099e-11,
150000,4.0386e-11,
