General parameters:
Start time: 2023              8             23             13             47      33.674533
Finish time: 2023              8             23             13             53      30.679597
Dwell time (ms): 3000.000000
Source chamber pressure: 2.00e+3
Differential chamber pressure: 7.72e-07
Sample chamber pressure: 3.79e-08
Example position (nm): -3102403.039793,292722.734328,-1000000.000000
Rotation angle (udeg): 114999925.000000
==========
Instrument status: 
0:Data Directory:/icon/data/2023_08_MoS2_5um_hbn_sub/
1:Sample:MoS2
2:Comments:no
3:PinholePlate:#C13
4:z_Zero:4200
5:Operator:djw77/nav31/kw570
==========
zscan inputs: 
z_sep:50000
z_range:200000 -5000000
data_path:/icon/data/2023_08_MoS2_5um_hbn_sub/
example_pos:-3102403.0398      292722.73433          -1000000
N_dwell:200
sampling_period:15
make_plots:1
m1:0.98976
m2:-0.0073571
==========
Detector params:
Sampling period (ms): 15.000000
N dwell: 200.000000
Filament current (A): 1.540000
Filament emission (mA): 1.766088
Solenoid current (A): NaN
Solenoid shim current (A): NaN
Lens params:
0  685
1  300
2  125
3      -0.002
4       -0.01
5       0.012
6         0.8
7         2.1
8         2.8
9  3000
10  1450
11         0.85
12   0
==========
Data:
z(nm),I(A)
200000,3.8714e-11,
100000,4.0457e-11,
0,3.9552e-11,
-100000,3.9552e-11,
-200000,4.0621e-11,
-300000,4.0139e-11,
-400000,4.0242e-11,
-500000,4.0136e-11,
-600000,4.0698e-11,
-700000,4.0747e-11,
-800000,4.0619e-11,
-900000,4.1504e-11,
-1000000,4.207e-11,
-1100000,4.103e-11,
-1200000,4.2409e-11,
-1300000,4.0861e-11,
-1400000,4.2445e-11,
-1500000,4.2028e-11,
-1600000,4.1758e-11,
-1700000,4.2101e-11,
-1800000,4.2234e-11,
-1900000,4.356e-11,
-2000000,4.126e-11,
-2100000,4.1392e-11,
-2200000,3.9888e-11,
-2300000,4.1033e-11,
-2400000,3.9891e-11,
-2500000,3.9576e-11,
-2600000,3.955e-11,
-2700000,3.8977e-11,
-2800000,3.9068e-11,
-2900000,3.7945e-11,
-3000000,3.7504e-11,
-3100000,3.7301e-11,
-3200000,3.583e-11,
-3300000,3.6659e-11,
-3400000,3.5533e-11,
-3500000,3.4242e-11,
-3600000,3.4623e-11,
-3700000,3.4234e-11,
-3800000,3.2892e-11,
-3900000,3.2919e-11,
-4000000,3.0978e-11,
-4100000,3.1038e-11,
-4200000,3.1283e-11,
-4300000,3.0731e-11,
-4400000,2.9942e-11,
-4500000,2.8297e-11,
-4600000,2.8548e-11,
-4700000,2.8627e-11,
-4800000,2.7083e-11,
-4900000,2.7196e-11,
-5000000,2.5922e-11,
-4950000,2.5872e-11,
-4850000,2.6946e-11,
-4750000,2.7966e-11,
-4650000,2.8333e-11,
-4550000,2.8563e-11,
-4450000,2.9119e-11,
-4350000,2.9931e-11,
-4250000,2.9875e-11,
-4150000,3.037e-11,
-4050000,3.1212e-11,
-3950000,3.2524e-11,
-3850000,3.2413e-11,
-3750000,3.3747e-11,
-3650000,3.2894e-11,
-3550000,3.3741e-11,
-3450000,3.5561e-11,
-3350000,3.4948e-11,
-3250000,3.5976e-11,
-3150000,3.7064e-11,
-3050000,3.753e-11,
-2950000,3.8004e-11,
-2850000,3.8153e-11,
-2750000,3.8435e-11,
-2650000,3.9153e-11,
-2550000,3.9768e-11,
-2450000,4.0077e-11,
-2350000,4.1098e-11,
-2250000,4.1285e-11,
-2150000,4.0696e-11,
-2050000,4.1938e-11,
-1950000,4.1022e-11,
-1850000,4.1739e-11,
-1750000,4.2704e-11,
-1650000,4.2822e-11,
-1550000,4.2063e-11,
-1450000,4.2732e-11,
-1350000,4.2196e-11,
-1250000,4.2293e-11,
-1150000,4.2622e-11,
-1050000,4.2136e-11,
-950000,4.2747e-11,
-850000,4.0861e-11,
-750000,4.0929e-11,
-650000,4.1144e-11,
-550000,4.165e-11,
-450000,3.9828e-11,
-350000,4.0528e-11,
-250000,3.9998e-11,
-150000,3.9174e-11,
-50000,4.0235e-11,
50000,3.9798e-11,
150000,3.9481e-11,
