General parameters:
Start time: 2023              8             22             12             48      37.560071
Finish time: 2023              8             22             12             54      32.080714
Dwell time (ms): 3000.000000
Source chamber pressure: 2.00e+3
Differential chamber pressure: 7.98e-07
Sample chamber pressure: 3.84e-08
Example position (nm): -3385607.248374,264797.492111,-1000000.000000
Rotation angle (udeg): 92500050.000000
==========
Instrument status: 
0:Data Directory:/icon/data/2023_08_MoS2_5um_hbn_sub/
1:Sample:MoS2
2:Comments:no
3:PinholePlate:#C13
4:z_Zero:4200
5:Operator:djw77/nav31/kw570
==========
zscan inputs: 
z_sep:50000
z_range:200000 -5000000
data_path:/icon/data/2023_08_MoS2_5um_hbn_sub/
example_pos:-3385607.2484      264797.49211          -1000000
N_dwell:200
sampling_period:15
make_plots:0
m1:0.98976
m2:-0.0073571
==========
Detector params:
Sampling period (ms): 15.000000
N dwell: 200.000000
Filament current (A): 1.540000
Filament emission (mA): 1.738044
Solenoid current (A): NaN
Solenoid shim current (A): NaN
Lens params:
0  685
1  300
2  125
3      -0.002
4       -0.01
5       0.012
6         0.8
7         2.1
8         2.8
9  3000
10  1450
11         0.85
12   0
==========
Data:
z(nm),I(A)
200000,7.4913e-11,
100000,7.0821e-11,
0,6.8484e-11,
-100000,6.267e-11,
-200000,5.972e-11,
-300000,5.4963e-11,
-400000,5.446e-11,
-500000,5.5291e-11,
-600000,6.1341e-11,
-700000,7.6722e-11,
-800000,1.1103e-10,
-900000,1.4793e-10,
-1000000,1.578e-10,
-1100000,1.3901e-10,
-1200000,9.9406e-11,
-1300000,7.5396e-11,
-1400000,6.3497e-11,
-1500000,5.6701e-11,
-1600000,5.2111e-11,
-1700000,4.9484e-11,
-1800000,4.8477e-11,
-1900000,4.8649e-11,
-2000000,4.7899e-11,
-2100000,4.991e-11,
-2200000,5.2226e-11,
-2300000,5.9674e-11,
-2400000,6.9369e-11,
-2500000,7.5145e-11,
-2600000,7.4848e-11,
-2700000,6.9682e-11,
-2800000,5.6967e-11,
-2900000,4.7091e-11,
-3000000,4.2617e-11,
-3100000,3.9289e-11,
-3200000,4.0236e-11,
-3300000,3.9743e-11,
-3400000,4.0225e-11,
-3500000,3.9804e-11,
-3600000,3.9165e-11,
-3700000,3.8329e-11,
-3800000,3.6776e-11,
-3900000,3.5333e-11,
-4000000,3.3609e-11,
-4100000,3.234e-11,
-4200000,3.1414e-11,
-4300000,3.0945e-11,
-4400000,3.1088e-11,
-4500000,2.9691e-11,
-4600000,2.912e-11,
-4700000,2.9854e-11,
-4800000,2.8116e-11,
-4900000,2.7124e-11,
-5000000,2.6733e-11,
-4950000,2.6623e-11,
-4850000,2.7372e-11,
-4750000,2.8061e-11,
-4650000,2.8303e-11,
-4550000,2.9128e-11,
-4450000,3.1181e-11,
-4350000,3.1814e-11,
-4250000,3.1042e-11,
-4150000,3.1655e-11,
-4050000,3.285e-11,
-3950000,3.416e-11,
-3850000,3.5329e-11,
-3750000,3.7221e-11,
-3650000,3.901e-11,
-3550000,3.9972e-11,
-3450000,4.1125e-11,
-3350000,3.993e-11,
-3250000,4.001e-11,
-3150000,3.9367e-11,
-3050000,4.1337e-11,
-2950000,4.3853e-11,
-2850000,5.0492e-11,
-2750000,6.1516e-11,
-2650000,7.198e-11,
-2550000,7.491e-11,
-2450000,7.4129e-11,
-2350000,6.5258e-11,
-2250000,5.6706e-11,
-2150000,5.0921e-11,
-2050000,4.9261e-11,
-1950000,4.6814e-11,
-1850000,4.8975e-11,
-1750000,4.9373e-11,
-1650000,5.051e-11,
-1550000,5.4636e-11,
-1450000,5.8153e-11,
-1350000,6.6738e-11,
-1250000,8.2868e-11,
-1150000,1.0865e-10,
-1050000,1.489e-10,
-950000,1.5844e-10,
-850000,1.3904e-10,
-750000,9.4475e-11,
-650000,6.8639e-11,
-550000,5.8254e-11,
-450000,5.393e-11,
-350000,5.4112e-11,
-250000,5.6258e-11,
-150000,6.061e-11,
-50000,6.5199e-11,
50000,7.1132e-11,
150000,7.4523e-11,
