General parameters:
Start time: 2023              9             26             17             37       26.77582
Finish time: 2023              9             26             17             46      29.455389
Dwell time (ms): 3750.000000
Source chamber pressure: Error-S
Differential chamber pressure: 6.43e-07
Sample chamber pressure: 3.67e-08
Example position (nm): -4617000.000000,250000.000000,-2700000.000000
Rotation angle (udeg): 124999780.000000
==========
Instrument status: 
0:Data Directory:/icon/data/2023_08_MoS2_5um_hbn_sub/
1:Sample:MoS2
2:Comments:no
3:PinholePlate:#C13
4:z_Zero:4200
5:Operator:djw77/nav31/kw570
==========
zscan inputs: 
z_sep:50000
z_range:500000 -6000000
data_path:/icon/data/2023_08_MoS2_5um_hbn_sub/
example_pos:-4617000   250000 -2700000
N_dwell:250
sampling_period:15
make_plots:1
m1:0.98976
m2:-0.0073571
==========
Detector params:
Sampling period (ms): 15.000000
N dwell: 250.000000
Filament current (A): 1.540000
Filament emission (mA): 2.805426
Solenoid current (A): NaN
Solenoid shim current (A): NaN
Lens params:
0  685
1  300
2  125
3      -0.002
4       -0.01
5       0.012
6         0.8
7         2.1
8         2.8
9  3000
10  1450
11         0.85
12   0
==========
Data:
z(nm),I(A)
500000,2.2003e-10,
400000,2.3557e-10,
300000,2.318e-10,
200000,2.2833e-10,
100000,2.2746e-10,
0,2.224e-10,
-100000,2.1077e-10,
-200000,2.0995e-10,
-300000,2.1165e-10,
-400000,2.1258e-10,
-500000,2.343e-10,
-600000,2.8085e-10,
-700000,4.0022e-10,
-800000,5.0671e-10,
-900000,4.4774e-10,
-1000000,3.0503e-10,
-1100000,2.3386e-10,
-1200000,1.9961e-10,
-1300000,2.0188e-10,
-1400000,2.1432e-10,
-1500000,2.7171e-10,
-1600000,3.6114e-10,
-1700000,4.1117e-10,
-1800000,3.8988e-10,
-1900000,3.2208e-10,
-2000000,2.2884e-10,
-2100000,1.9727e-10,
-2200000,2.0037e-10,
-2300000,2.443e-10,
-2400000,3.4166e-10,
-2500000,4.7055e-10,
-2600000,5.5711e-10,
-2700000,5.6636e-10,
-2800000,5.056e-10,
-2900000,3.9036e-10,
-3000000,2.6724e-10,
-3100000,2.043e-10,
-3200000,1.8329e-10,
-3300000,1.8765e-10,
-3400000,2.0895e-10,
-3500000,2.4357e-10,
-3600000,2.8687e-10,
-3700000,3.1267e-10,
-3800000,3.1468e-10,
-3900000,2.8844e-10,
-4000000,2.4847e-10,
-4100000,2.0256e-10,
-4200000,1.6382e-10,
-4300000,1.4004e-10,
-4400000,1.2919e-10,
-4500000,1.2314e-10,
-4600000,1.2021e-10,
-4700000,1.2062e-10,
-4800000,1.2116e-10,
-4900000,1.2334e-10,
-5000000,1.2577e-10,
-5100000,1.2804e-10,
-5200000,1.2677e-10,
-5300000,1.2704e-10,
-5400000,1.2799e-10,
-5500000,1.1553e-10,
-5600000,1.0816e-10,
-5700000,1.093e-10,
-5800000,1.0592e-10,
-5900000,1.0291e-10,
-6000000,1.001e-10,
-5950000,9.9563e-11,
-5850000,1.0426e-10,
-5750000,1.08e-10,
-5650000,1.0808e-10,
-5550000,1.0841e-10,
-5450000,1.2073e-10,
-5350000,1.2805e-10,
-5250000,1.2825e-10,
-5150000,1.2798e-10,
-5050000,1.2677e-10,
-4950000,1.2461e-10,
-4850000,1.2248e-10,
-4750000,1.2063e-10,
-4650000,1.2017e-10,
-4550000,1.226e-10,
-4450000,1.2493e-10,
-4350000,1.3389e-10,
-4250000,1.489e-10,
-4150000,1.7869e-10,
-4050000,2.2026e-10,
-3950000,2.6642e-10,
-3850000,3.0086e-10,
-3750000,3.1738e-10,
-3650000,3.0655e-10,
-3550000,2.7128e-10,
-3450000,2.2777e-10,
-3350000,2e-10,
-3250000,1.8462e-10,
-3150000,1.9045e-10,
-3050000,2.227e-10,
-2950000,3.1172e-10,
-2850000,4.5e-10,
-2750000,5.4743e-10,
-2650000,5.7753e-10,
-2550000,5.3687e-10,
-2450000,4.2417e-10,
-2350000,2.9946e-10,
-2250000,2.2288e-10,
-2150000,1.9763e-10,
-2050000,2.0752e-10,
-1950000,2.6234e-10,
-1850000,3.4586e-10,
-1750000,3.9942e-10,
-1650000,3.9701e-10,
-1550000,3.2339e-10,
-1450000,2.447e-10,
-1350000,2.0773e-10,
-1250000,2.0244e-10,
-1150000,2.1151e-10,
-1050000,2.5775e-10,
-950000,3.5707e-10,
-850000,4.8334e-10,
-750000,4.7222e-10,
-650000,3.298e-10,
-550000,2.5867e-10,
-450000,2.278e-10,
-350000,2.2006e-10,
-250000,2.1938e-10,
-150000,2.1507e-10,
-50000,2.2413e-10,
50000,2.2397e-10,
150000,2.2702e-10,
250000,2.3136e-10,
350000,2.3313e-10,
450000,2.2834e-10,
