General parameters:
Start time: 2023              8             28              2             51      21.001317
Finish time: 2023              8             28              2             57      17.763617
Dwell time (ms): 3000.000000
Source chamber pressure: 2.00e+3
Differential chamber pressure: 6.35e-07
Sample chamber pressure: 3.62e-08
Example position (nm): -3782817.740011,202477.561777,-1000000.000000
Rotation angle (udeg): 69999975.000000
==========
Instrument status: 
0:Data Directory:/icon/data/2023_08_MoS2_5um_hbn_sub/
1:Sample:MoS2
2:Comments:no
3:PinholePlate:#C13
4:z_Zero:4200
5:Operator:djw77/nav31/kw570
==========
zscan inputs: 
z_sep:50000
z_range:200000 -5000000
data_path:/icon/data/2023_08_MoS2_5um_hbn_sub/
example_pos:-3782817.74      202477.56178          -1000000
N_dwell:200
sampling_period:15
make_plots:1
m1:0.98976
m2:-0.0073571
==========
Detector params:
Sampling period (ms): 15.000000
N dwell: 200.000000
Filament current (A): 1.540000
Filament emission (mA): 1.901520
Solenoid current (A): NaN
Solenoid shim current (A): NaN
Lens params:
0  685
1  300
2  125
3      -0.002
4       -0.01
5       0.012
6         0.8
7         2.1
8         2.8
9  3000
10  1450
11         0.85
12   0
==========
Data:
z(nm),I(A)
200000,1.6862e-10,
100000,1.5482e-10,
0,1.2355e-10,
-100000,9.9832e-11,
-200000,8.6763e-11,
-300000,7.186e-11,
-400000,6.5574e-11,
-500000,6.2954e-11,
-600000,6.7611e-11,
-700000,8.5531e-11,
-800000,1.2288e-10,
-900000,1.7119e-10,
-1000000,1.9524e-10,
-1100000,1.9085e-10,
-1200000,1.5082e-10,
-1300000,1.0795e-10,
-1400000,8.5254e-11,
-1500000,7.5978e-11,
-1600000,7.7886e-11,
-1700000,9.0022e-11,
-1800000,1.0521e-10,
-1900000,1.1168e-10,
-2000000,1.082e-10,
-2100000,9.3938e-11,
-2200000,7.6589e-11,
-2300000,6.3599e-11,
-2400000,6.2361e-11,
-2500000,6.8e-11,
-2600000,7.8734e-11,
-2700000,9.8136e-11,
-2800000,1.1672e-10,
-2900000,1.2308e-10,
-3000000,1.1729e-10,
-3100000,9.9764e-11,
-3200000,7.5952e-11,
-3300000,5.9396e-11,
-3400000,5.1124e-11,
-3500000,4.6127e-11,
-3600000,4.5419e-11,
-3700000,4.6892e-11,
-3800000,4.8201e-11,
-3900000,5.0005e-11,
-4000000,4.8375e-11,
-4100000,4.9713e-11,
-4200000,4.6852e-11,
-4300000,4.3355e-11,
-4400000,4.0702e-11,
-4500000,3.5563e-11,
-4600000,3.2389e-11,
-4700000,3.0832e-11,
-4800000,2.9453e-11,
-4900000,2.7519e-11,
-5000000,2.7444e-11,
-4950000,2.859e-11,
-4850000,2.8564e-11,
-4750000,3.02e-11,
-4650000,3.149e-11,
-4550000,3.4098e-11,
-4450000,3.7207e-11,
-4350000,3.9899e-11,
-4250000,4.5253e-11,
-4150000,4.8207e-11,
-4050000,4.9832e-11,
-3950000,4.9994e-11,
-3850000,5.0323e-11,
-3750000,4.827e-11,
-3650000,4.6121e-11,
-3550000,4.4917e-11,
-3450000,4.7316e-11,
-3350000,5.4202e-11,
-3250000,6.5814e-11,
-3150000,8.4691e-11,
-3050000,1.0792e-10,
-2950000,1.1939e-10,
-2850000,1.2496e-10,
-2750000,1.126e-10,
-2650000,9.104e-11,
-2550000,7.4099e-11,
-2450000,6.4562e-11,
-2350000,6.1894e-11,
-2250000,6.7667e-11,
-2150000,8.2689e-11,
-2050000,1.0168e-10,
-1950000,1.1097e-10,
-1850000,1.1183e-10,
-1750000,9.9903e-11,
-1650000,8.4342e-11,
-1550000,7.6277e-11,
-1450000,7.6973e-11,
-1350000,9.07e-11,
-1250000,1.2099e-10,
-1150000,1.7064e-10,
-1050000,1.976e-10,
-950000,1.9609e-10,
-850000,1.5764e-10,
-750000,1.0706e-10,
-650000,7.7175e-11,
-550000,6.4939e-11,
-450000,6.1945e-11,
-350000,6.5069e-11,
-250000,7.6847e-11,
-150000,9.3366e-11,
-50000,1.124e-10,
50000,1.3556e-10,
150000,1.5945e-10,
