General parameters:
Start time: 2023              8             23             12             17       5.100471
Finish time: 2023              8             23             12             23       2.153409
Dwell time (ms): 3000.000000
Source chamber pressure: 2.00e+3
Differential chamber pressure: 7.73e-07
Sample chamber pressure: 3.79e-08
Example position (nm): -4067111.576482,-84890.091918,-1000000.000000
Rotation angle (udeg): 39999685.000000
==========
Instrument status: 
0:Data Directory:/icon/data/2023_08_MoS2_5um_hbn_sub/
1:Sample:MoS2
2:Comments:no
3:PinholePlate:#C13
4:z_Zero:4200
5:Operator:djw77/nav31/kw570
==========
zscan inputs: 
z_sep:50000
z_range:200000 -5000000
data_path:/icon/data/2023_08_MoS2_5um_hbn_sub/
example_pos:-4067111.5765     -84890.091918          -1000000
N_dwell:200
sampling_period:15
make_plots:1
m1:0.98976
m2:-0.0073571
==========
Detector params:
Sampling period (ms): 15.000000
N dwell: 200.000000
Filament current (A): 1.540000
Filament emission (mA): 1.789002
Solenoid current (A): NaN
Solenoid shim current (A): NaN
Lens params:
0  685
1  300
2  125
3      -0.002
4       -0.01
5       0.012
6         0.8
7         2.1
8         2.8
9  3000
10  1450
11         0.85
12   0
==========
Data:
z(nm),I(A)
200000,3.2804e-11,
100000,3.2287e-11,
0,3.2876e-11,
-100000,3.2592e-11,
-200000,3.2985e-11,
-300000,3.3127e-11,
-400000,3.4172e-11,
-500000,3.3759e-11,
-600000,3.5258e-11,
-700000,3.6004e-11,
-800000,3.5739e-11,
-900000,3.5441e-11,
-1000000,3.7023e-11,
-1100000,3.7038e-11,
-1200000,3.7493e-11,
-1300000,3.6252e-11,
-1400000,3.7098e-11,
-1500000,3.7915e-11,
-1600000,3.8232e-11,
-1700000,3.8969e-11,
-1800000,3.9262e-11,
-1900000,3.8033e-11,
-2000000,3.8484e-11,
-2100000,3.7402e-11,
-2200000,3.6625e-11,
-2300000,3.7493e-11,
-2400000,3.7085e-11,
-2500000,3.6786e-11,
-2600000,3.6951e-11,
-2700000,3.5576e-11,
-2800000,3.6371e-11,
-2900000,3.4932e-11,
-3000000,3.4699e-11,
-3100000,3.4859e-11,
-3200000,3.3335e-11,
-3300000,3.2321e-11,
-3400000,3.1823e-11,
-3500000,3.1653e-11,
-3600000,3.0793e-11,
-3700000,3.0325e-11,
-3800000,3.0815e-11,
-3900000,2.9983e-11,
-4000000,2.8843e-11,
-4100000,2.9174e-11,
-4200000,2.8992e-11,
-4300000,2.8131e-11,
-4400000,2.7444e-11,
-4500000,2.653e-11,
-4600000,2.5934e-11,
-4700000,2.5784e-11,
-4800000,2.5797e-11,
-4900000,2.5291e-11,
-5000000,2.4819e-11,
-4950000,2.4275e-11,
-4850000,2.4943e-11,
-4750000,2.5248e-11,
-4650000,2.6315e-11,
-4550000,2.6504e-11,
-4450000,2.6721e-11,
-4350000,2.7991e-11,
-4250000,2.8097e-11,
-4150000,2.8714e-11,
-4050000,2.8825e-11,
-3950000,2.9849e-11,
-3850000,2.9809e-11,
-3750000,3.0479e-11,
-3650000,3.0389e-11,
-3550000,3.1938e-11,
-3450000,3.2291e-11,
-3350000,3.2902e-11,
-3250000,3.304e-11,
-3150000,3.4618e-11,
-3050000,3.4348e-11,
-2950000,3.544e-11,
-2850000,3.5414e-11,
-2750000,3.5208e-11,
-2650000,3.6237e-11,
-2550000,3.6485e-11,
-2450000,3.7047e-11,
-2350000,3.6918e-11,
-2250000,3.7618e-11,
-2150000,3.76e-11,
-2050000,3.791e-11,
-1950000,3.8712e-11,
-1850000,3.8558e-11,
-1750000,3.8142e-11,
-1650000,3.7984e-11,
-1550000,3.9321e-11,
-1450000,3.8652e-11,
-1350000,3.8054e-11,
-1250000,3.7157e-11,
-1150000,3.6692e-11,
-1050000,3.7788e-11,
-950000,3.6649e-11,
-850000,3.6439e-11,
-750000,3.6105e-11,
-650000,3.52e-11,
-550000,3.4702e-11,
-450000,3.4095e-11,
-350000,3.421e-11,
-250000,3.3222e-11,
-150000,3.2984e-11,
-50000,3.2947e-11,
50000,3.2649e-11,
150000,3.2917e-11,
