General parameters:
Start time: 2023              8             28              5             22       6.866562
Finish time: 2023              8             28              5             28       3.485359
Dwell time (ms): 3000.000000
Source chamber pressure: 2.00e+3
Differential chamber pressure: 6.31e-07
Sample chamber pressure: 3.62e-08
Example position (nm): -2788897.361294,179852.529842,-1000000.000000
Rotation angle (udeg): 132500035.000000
==========
Instrument status: 
0:Data Directory:/icon/data/2023_08_MoS2_5um_hbn_sub/
1:Sample:MoS2
2:Comments:no
3:PinholePlate:#C13
4:z_Zero:4200
5:Operator:djw77/nav31/kw570
==========
zscan inputs: 
z_sep:50000
z_range:200000 -5000000
data_path:/icon/data/2023_08_MoS2_5um_hbn_sub/
example_pos:-2788897.3613      179852.52984          -1000000
N_dwell:200
sampling_period:15
make_plots:1
m1:0.98976
m2:-0.0073571
==========
Detector params:
Sampling period (ms): 15.000000
N dwell: 200.000000
Filament current (A): 1.540000
Filament emission (mA): 1.902204
Solenoid current (A): NaN
Solenoid shim current (A): NaN
Lens params:
0  685
1  300
2  125
3      -0.002
4       -0.01
5       0.012
6         0.8
7         2.1
8         2.8
9  3000
10  1450
11         0.85
12   0
==========
Data:
z(nm),I(A)
200000,9.5482e-11,
100000,8.6165e-11,
0,7.9574e-11,
-100000,7.1965e-11,
-200000,6.6571e-11,
-300000,6.4766e-11,
-400000,6.4833e-11,
-500000,7.2417e-11,
-600000,8.4628e-11,
-700000,1.1031e-10,
-800000,1.4627e-10,
-900000,1.4092e-10,
-1000000,1.0896e-10,
-1100000,8.6581e-11,
-1200000,7.0611e-11,
-1300000,6.5687e-11,
-1400000,6.1869e-11,
-1500000,6.6678e-11,
-1600000,7.1228e-11,
-1700000,7.7169e-11,
-1800000,7.6757e-11,
-1900000,7.0725e-11,
-2000000,6.2594e-11,
-2100000,5.7546e-11,
-2200000,5.7756e-11,
-2300000,5.8823e-11,
-2400000,6.2573e-11,
-2500000,6.669e-11,
-2600000,7.0362e-11,
-2700000,7.132e-11,
-2800000,6.8865e-11,
-2900000,6.4381e-11,
-3000000,5.9266e-11,
-3100000,5.3818e-11,
-3200000,5.2046e-11,
-3300000,5.1644e-11,
-3400000,4.9467e-11,
-3500000,4.8043e-11,
-3600000,4.6879e-11,
-3700000,4.538e-11,
-3800000,4.4397e-11,
-3900000,4.2932e-11,
-4000000,4.1634e-11,
-4100000,3.8508e-11,
-4200000,3.7798e-11,
-4300000,3.6398e-11,
-4400000,3.5114e-11,
-4500000,3.4762e-11,
-4600000,3.3391e-11,
-4700000,3.1945e-11,
-4800000,3.1308e-11,
-4900000,3.108e-11,
-5000000,2.9001e-11,
-4950000,2.9948e-11,
-4850000,3.0354e-11,
-4750000,3.266e-11,
-4650000,3.2548e-11,
-4550000,3.4514e-11,
-4450000,3.5191e-11,
-4350000,3.6044e-11,
-4250000,3.7177e-11,
-4150000,3.8558e-11,
-4050000,4.0917e-11,
-3950000,4.2489e-11,
-3850000,4.4289e-11,
-3750000,4.473e-11,
-3650000,4.705e-11,
-3550000,4.7403e-11,
-3450000,4.9482e-11,
-3350000,5.2096e-11,
-3250000,5.2214e-11,
-3150000,5.4103e-11,
-3050000,5.647e-11,
-2950000,6.0973e-11,
-2850000,6.7023e-11,
-2750000,7.1028e-11,
-2650000,7.369e-11,
-2550000,6.9031e-11,
-2450000,6.5914e-11,
-2350000,6.0995e-11,
-2250000,5.8205e-11,
-2150000,5.685e-11,
-2050000,5.9193e-11,
-1950000,6.5983e-11,
-1850000,7.3865e-11,
-1750000,7.7304e-11,
-1650000,7.4965e-11,
-1550000,6.9045e-11,
-1450000,6.4897e-11,
-1350000,6.2165e-11,
-1250000,6.6112e-11,
-1150000,7.8352e-11,
-1050000,9.4433e-11,
-950000,1.219e-10,
-850000,1.4616e-10,
-750000,1.3414e-10,
-650000,1.0028e-10,
-550000,7.8941e-11,
-450000,6.7206e-11,
-350000,6.4123e-11,
-250000,6.5258e-11,
-150000,6.8555e-11,
-50000,7.4578e-11,
50000,8.2005e-11,
150000,8.9858e-11,
