General parameters:
Start time: 2023              8             23             12             59      17.932775
Finish time: 2023              8             23             13              5       14.34112
Dwell time (ms): 3000.000000
Source chamber pressure: 2.00e+3
Differential chamber pressure: 7.72e-07
Sample chamber pressure: 3.84e-08
Example position (nm): -3683115.232209,253370.901539,-1000000.000000
Rotation angle (udeg): 74999870.000000
==========
Instrument status: 
0:Data Directory:/icon/data/2023_08_MoS2_5um_hbn_sub/
1:Sample:MoS2
2:Comments:no
3:PinholePlate:#C13
4:z_Zero:4200
5:Operator:djw77/nav31/kw570
==========
zscan inputs: 
z_sep:50000
z_range:200000 -5000000
data_path:/icon/data/2023_08_MoS2_5um_hbn_sub/
example_pos:-3683115.2322      253370.90154          -1000000
N_dwell:200
sampling_period:15
make_plots:1
m1:0.98976
m2:-0.0073571
==========
Detector params:
Sampling period (ms): 15.000000
N dwell: 200.000000
Filament current (A): 1.540000
Filament emission (mA): 1.772928
Solenoid current (A): NaN
Solenoid shim current (A): NaN
Lens params:
0  685
1  300
2  125
3      -0.002
4       -0.01
5       0.012
6         0.8
7         2.1
8         2.8
9  3000
10  1450
11         0.85
12   0
==========
Data:
z(nm),I(A)
200000,3.592e-11,
100000,3.4623e-11,
0,3.459e-11,
-100000,3.5189e-11,
-200000,3.4814e-11,
-300000,3.6275e-11,
-400000,3.6208e-11,
-500000,3.6809e-11,
-600000,3.7777e-11,
-700000,3.8664e-11,
-800000,3.7248e-11,
-900000,3.8012e-11,
-1000000,3.8975e-11,
-1100000,3.9239e-11,
-1200000,4.0101e-11,
-1300000,3.9861e-11,
-1400000,3.977e-11,
-1500000,4.1083e-11,
-1600000,4.0401e-11,
-1700000,4.0389e-11,
-1800000,4.0674e-11,
-1900000,4.1143e-11,
-2000000,4.0607e-11,
-2100000,4.0209e-11,
-2200000,4.0617e-11,
-2300000,4.0007e-11,
-2400000,3.9034e-11,
-2500000,3.9388e-11,
-2600000,3.8752e-11,
-2700000,3.8221e-11,
-2800000,3.7323e-11,
-2900000,3.6654e-11,
-3000000,3.7442e-11,
-3100000,3.6064e-11,
-3200000,3.614e-11,
-3300000,3.5283e-11,
-3400000,3.3974e-11,
-3500000,3.3278e-11,
-3600000,3.3311e-11,
-3700000,3.2572e-11,
-3800000,3.1582e-11,
-3900000,3.1674e-11,
-4000000,3.1164e-11,
-4100000,3.0291e-11,
-4200000,2.8599e-11,
-4300000,2.9532e-11,
-4400000,2.8775e-11,
-4500000,2.821e-11,
-4600000,2.7633e-11,
-4700000,2.7206e-11,
-4800000,2.6512e-11,
-4900000,2.5649e-11,
-5000000,2.5313e-11,
-4950000,2.4964e-11,
-4850000,2.64e-11,
-4750000,2.5964e-11,
-4650000,2.6776e-11,
-4550000,2.7827e-11,
-4450000,2.8104e-11,
-4350000,2.8459e-11,
-4250000,2.937e-11,
-4150000,3.0174e-11,
-4050000,3.0697e-11,
-3950000,3.1593e-11,
-3850000,3.1447e-11,
-3750000,3.2092e-11,
-3650000,3.3049e-11,
-3550000,3.3096e-11,
-3450000,3.3836e-11,
-3350000,3.4259e-11,
-3250000,3.4777e-11,
-3150000,3.5385e-11,
-3050000,3.6448e-11,
-2950000,3.7129e-11,
-2850000,3.6872e-11,
-2750000,3.7939e-11,
-2650000,3.7931e-11,
-2550000,3.9001e-11,
-2450000,3.9432e-11,
-2350000,4.0132e-11,
-2250000,4.0156e-11,
-2150000,3.9526e-11,
-2050000,4.0946e-11,
-1950000,4.0351e-11,
-1850000,4.0911e-11,
-1750000,4.1929e-11,
-1650000,4.1236e-11,
-1550000,4.0535e-11,
-1450000,4.0535e-11,
-1350000,4.0565e-11,
-1250000,3.9277e-11,
-1150000,3.9987e-11,
-1050000,4.0204e-11,
-950000,3.9653e-11,
-850000,3.8521e-11,
-750000,3.8193e-11,
-650000,3.7405e-11,
-550000,3.6764e-11,
-450000,3.6689e-11,
-350000,3.6337e-11,
-250000,3.5477e-11,
-150000,3.5596e-11,
-50000,3.5744e-11,
50000,3.6026e-11,
150000,3.5744e-11,
