General parameters:
Start time: 2023              8             21             20             45       21.87688
Finish time: 2023              8             21             20             51      16.386503
Dwell time (ms): 3000.000000
Source chamber pressure: 2.00e+3
Differential chamber pressure: 7.97e-07
Sample chamber pressure: 3.84e-08
Example position (nm): -3899458.294681,114866.349136,-1000000.000000
Rotation angle (udeg): 57500095.000000
==========
Instrument status: 
0:Data Directory:/icon/data/2023_08_MoS2_5um_hbn_sub/
1:Sample:MoS2
2:Comments:no
3:PinholePlate:#C13
4:z_Zero:4200
5:Operator:djw77/nav31/kw570
==========
zscan inputs: 
z_sep:50000
z_range:200000 -5000000
data_path:/icon/data/2023_08_MoS2_5um_hbn_sub/
example_pos:-3899458.2947      114866.34914          -1000000
N_dwell:200
sampling_period:15
make_plots:0
m1:0.98976
m2:-0.0073571
==========
Detector params:
Sampling period (ms): 15.000000
N dwell: 200.000000
Filament current (A): 1.540000
Filament emission (mA): 1.735992
Solenoid current (A): NaN
Solenoid shim current (A): NaN
Lens params:
0  685
1  300
2  125
3      -0.002
4       -0.01
5       0.012
6         0.8
7         2.1
8         2.8
9  3000
10  1450
11         0.85
12   0
==========
Data:
z(nm),I(A)
200000,4.249e-11,
100000,4.2389e-11,
0,4.2034e-11,
-100000,4.2232e-11,
-200000,4.1722e-11,
-300000,4.2704e-11,
-400000,4.3745e-11,
-500000,4.3691e-11,
-600000,4.5209e-11,
-700000,4.4914e-11,
-800000,4.5693e-11,
-900000,4.5571e-11,
-1000000,4.6896e-11,
-1100000,4.6957e-11,
-1200000,4.6648e-11,
-1300000,4.8283e-11,
-1400000,4.7316e-11,
-1500000,4.7841e-11,
-1600000,4.8811e-11,
-1700000,4.7355e-11,
-1800000,4.8636e-11,
-1900000,4.8662e-11,
-2000000,4.8504e-11,
-2100000,4.8859e-11,
-2200000,4.7994e-11,
-2300000,4.7269e-11,
-2400000,4.5988e-11,
-2500000,4.6287e-11,
-2600000,4.6173e-11,
-2700000,4.5376e-11,
-2800000,4.6836e-11,
-2900000,4.4959e-11,
-3000000,4.3328e-11,
-3100000,4.4002e-11,
-3200000,4.258e-11,
-3300000,4.0495e-11,
-3400000,4.1582e-11,
-3500000,4.0199e-11,
-3600000,3.9023e-11,
-3700000,3.9322e-11,
-3800000,3.8101e-11,
-3900000,3.8087e-11,
-4000000,3.6645e-11,
-4100000,3.6749e-11,
-4200000,3.5938e-11,
-4300000,3.4078e-11,
-4400000,3.4426e-11,
-4500000,3.4221e-11,
-4600000,3.3812e-11,
-4700000,3.2991e-11,
-4800000,3.2372e-11,
-4900000,3.1635e-11,
-5000000,3.0828e-11,
-4950000,3.0465e-11,
-4850000,3.175e-11,
-4750000,3.2212e-11,
-4650000,3.3255e-11,
-4550000,3.3599e-11,
-4450000,3.3794e-11,
-4350000,3.4841e-11,
-4250000,3.4315e-11,
-4150000,3.6662e-11,
-4050000,3.7284e-11,
-3950000,3.7707e-11,
-3850000,3.8901e-11,
-3750000,3.8518e-11,
-3650000,3.9436e-11,
-3550000,4.0154e-11,
-3450000,4.137e-11,
-3350000,4.1563e-11,
-3250000,4.2011e-11,
-3150000,4.2584e-11,
-3050000,4.3761e-11,
-2950000,4.3016e-11,
-2850000,4.483e-11,
-2750000,4.4969e-11,
-2650000,4.5685e-11,
-2550000,4.6676e-11,
-2450000,4.6352e-11,
-2350000,4.8046e-11,
-2250000,4.7564e-11,
-2150000,4.7755e-11,
-2050000,4.7374e-11,
-1950000,4.9176e-11,
-1850000,4.8808e-11,
-1750000,4.853e-11,
-1650000,4.7766e-11,
-1550000,4.7612e-11,
-1450000,4.77e-11,
-1350000,4.8337e-11,
-1250000,4.8052e-11,
-1150000,4.757e-11,
-1050000,4.7286e-11,
-950000,4.5984e-11,
-850000,4.5228e-11,
-750000,4.521e-11,
-650000,4.4177e-11,
-550000,4.4713e-11,
-450000,4.4622e-11,
-350000,4.2193e-11,
-250000,4.2354e-11,
-150000,4.1558e-11,
-50000,4.1162e-11,
50000,4.1262e-11,
150000,4.2584e-11,
