General parameters:
Start time: 2023              8             18             16             11       59.43391
Finish time: 2023              8             18             16             17      56.085399
Dwell time (ms): 3000.000000
Source chamber pressure: 2.00e+3
Differential chamber pressure: 7.92e-07
Sample chamber pressure: 3.88e-08
Example position (nm): -3672940.633967,214181.007911,-1000000.000000
Rotation angle (udeg): 75000220.000000
==========
Instrument status: 
0:Data Directory:/icon/data/2023_08_MoS2_5um_hbn_sub/
1:Sample:MoS2
2:Comments:no
3:PinholePlate:#C13
4:z_Zero:4200
5:Operator:djw77/nav31/kw570
==========
zscan inputs: 
z_sep:50000
z_range:200000 -5000000
data_path:/icon/data/2023_08_MoS2_5um_hbn_sub/
example_pos:-3672940.634      214181.00791          -1000000
N_dwell:200
sampling_period:15
make_plots:1
m1:0.98976
m2:-0.0073571
==========
Detector params:
Sampling period (ms): 15.000000
N dwell: 200.000000
Filament current (A): 1.540000
Filament emission (mA): 1.653912
Solenoid current (A): NaN
Solenoid shim current (A): NaN
Lens params:
0  685
1  300
2  125
3      -0.002
4       -0.01
5       0.012
6         0.8
7         2.1
8         2.8
9  3000
10  1450
11         0.85
12   0
==========
Data:
z(nm),I(A)
200000,4.5691e-11,
100000,4.6932e-11,
0,4.4904e-11,
-100000,4.045e-11,
-200000,4.2012e-11,
-300000,4.2191e-11,
-400000,4.1384e-11,
-500000,4.227e-11,
-600000,4.5823e-11,
-700000,4.6445e-11,
-800000,4.5506e-11,
-900000,4.4756e-11,
-1000000,4.8477e-11,
-1100000,5.3392e-11,
-1200000,5.4619e-11,
-1300000,5.6054e-11,
-1400000,5.3208e-11,
-1500000,5.4256e-11,
-1600000,5.2948e-11,
-1700000,4.9959e-11,
-1800000,5.0003e-11,
-1900000,4.9076e-11,
-2000000,4.744e-11,
-2100000,4.6014e-11,
-2200000,4.6359e-11,
-2300000,4.4997e-11,
-2400000,4.5086e-11,
-2500000,4.4318e-11,
-2600000,4.3426e-11,
-2700000,4.1573e-11,
-2800000,4.1652e-11,
-2900000,4.3415e-11,
-3000000,4.1214e-11,
-3100000,3.9359e-11,
-3200000,3.7301e-11,
-3300000,3.5863e-11,
-3400000,3.5228e-11,
-3500000,3.4022e-11,
-3600000,3.3118e-11,
-3700000,3.2929e-11,
-3800000,3.2633e-11,
-3900000,3.1767e-11,
-4000000,3.0335e-11,
-4100000,2.9769e-11,
-4200000,2.8656e-11,
-4300000,2.8882e-11,
-4400000,2.8198e-11,
-4500000,2.7723e-11,
-4600000,2.7495e-11,
-4700000,2.6279e-11,
-4800000,2.574e-11,
-4900000,2.5921e-11,
-5000000,2.5509e-11,
-4950000,2.5572e-11,
-4850000,2.568e-11,
-4750000,2.6409e-11,
-4650000,2.7438e-11,
-4550000,2.7413e-11,
-4450000,2.7941e-11,
-4350000,2.8196e-11,
-4250000,2.8211e-11,
-4150000,2.9529e-11,
-4050000,3.0086e-11,
-3950000,3.1179e-11,
-3850000,3.11e-11,
-3750000,3.2722e-11,
-3650000,3.3618e-11,
-3550000,3.3095e-11,
-3450000,3.3669e-11,
-3350000,3.5095e-11,
-3250000,3.5403e-11,
-3150000,3.703e-11,
-3050000,3.9341e-11,
-2950000,4.0556e-11,
-2850000,4.1404e-11,
-2750000,4.0701e-11,
-2650000,4.093e-11,
-2550000,4.2144e-11,
-2450000,4.3211e-11,
-2350000,4.2197e-11,
-2250000,4.2653e-11,
-2150000,4.3274e-11,
-2050000,4.3673e-11,
-1950000,4.5324e-11,
-1850000,4.592e-11,
-1750000,4.6272e-11,
-1650000,4.7725e-11,
-1550000,4.7603e-11,
-1450000,4.8584e-11,
-1350000,4.8996e-11,
-1250000,5.1056e-11,
-1150000,4.8815e-11,
-1050000,4.6366e-11,
-950000,4.3594e-11,
-850000,4.2463e-11,
-750000,4.372e-11,
-650000,4.5168e-11,
-550000,4.2801e-11,
-450000,4.1056e-11,
-350000,4.1283e-11,
-250000,4.1042e-11,
-150000,3.9757e-11,
-50000,4.2427e-11,
50000,4.2398e-11,
150000,4.2743e-11,
