General parameters:
Start time: 2023              8             29              6             54      22.715783
Finish time: 2023              8             29              7              1      26.788249
Dwell time (ms): 3000.000000
Source chamber pressure: 2.00e+3
Differential chamber pressure: 6.01e-07
Sample chamber pressure: 3.62e-08
Example position (nm): -2654357.178450,36491.089498,-1000000.000000
Rotation angle (udeg): 147499830.000000
==========
Instrument status: 
0:Data Directory:/icon/data/2023_08_MoS2_5um_hbn_sub/
1:Sample:MoS2
2:Comments:no
3:PinholePlate:#C13
4:z_Zero:4200
5:Operator:djw77/nav31/kw570
==========
zscan inputs: 
z_sep:50000
z_range:200000 -6000000
data_path:/icon/data/2023_08_MoS2_5um_hbn_sub/
example_pos:-2654357.1784      36491.089498          -1000000
N_dwell:200
sampling_period:15
make_plots:1
m1:0.98976
m2:-0.0073571
==========
Detector params:
Sampling period (ms): 15.000000
N dwell: 200.000000
Filament current (A): 1.540000
Filament emission (mA): 1.927170
Solenoid current (A): NaN
Solenoid shim current (A): NaN
Lens params:
0  685
1  300
2  125
3      -0.002
4       -0.01
5       0.012
6         0.8
7         2.1
8         2.8
9  3000
10  1450
11         0.85
12   0
==========
Data:
z(nm),I(A)
200000,6.3089e-11,
100000,6.43e-11,
0,6.4068e-11,
-100000,6.419e-11,
-200000,6.4602e-11,
-300000,6.4374e-11,
-400000,6.5303e-11,
-500000,6.551e-11,
-600000,6.4706e-11,
-700000,6.535e-11,
-800000,6.574e-11,
-900000,6.7258e-11,
-1000000,6.6427e-11,
-1100000,6.706e-11,
-1200000,6.7358e-11,
-1300000,6.679e-11,
-1400000,6.6689e-11,
-1500000,6.7143e-11,
-1600000,6.6338e-11,
-1700000,6.7477e-11,
-1800000,6.7271e-11,
-1900000,6.7612e-11,
-2000000,6.7738e-11,
-2100000,6.642e-11,
-2200000,6.666e-11,
-2300000,6.4737e-11,
-2400000,6.541e-11,
-2500000,6.4389e-11,
-2600000,6.3563e-11,
-2700000,6.1954e-11,
-2800000,6.158e-11,
-2900000,6.1607e-11,
-3000000,5.9622e-11,
-3100000,5.8981e-11,
-3200000,5.8271e-11,
-3300000,5.7916e-11,
-3400000,5.6459e-11,
-3500000,5.5317e-11,
-3600000,5.4268e-11,
-3700000,5.4482e-11,
-3800000,5.1538e-11,
-3900000,5.2881e-11,
-4000000,5.0893e-11,
-4100000,4.9717e-11,
-4200000,4.9387e-11,
-4300000,4.9126e-11,
-4400000,4.7928e-11,
-4500000,4.6993e-11,
-4600000,4.5609e-11,
-4700000,4.5279e-11,
-4800000,4.4146e-11,
-4900000,4.4099e-11,
-5000000,4.3231e-11,
-5100000,4.196e-11,
-5200000,4.1977e-11,
-5300000,4.1606e-11,
-5400000,4.0059e-11,
-5500000,4.0722e-11,
-5600000,3.9715e-11,
-5700000,3.9393e-11,
-5800000,3.7995e-11,
-5900000,3.7338e-11,
-6000000,3.6933e-11,
-5950000,3.7671e-11,
-5850000,3.8794e-11,
-5750000,3.8677e-11,
-5650000,3.8285e-11,
-5550000,3.9834e-11,
-5450000,4.0262e-11,
-5350000,4.1152e-11,
-5250000,4.1852e-11,
-5150000,4.223e-11,
-5050000,4.2113e-11,
-4950000,4.4352e-11,
-4850000,4.3156e-11,
-4750000,4.54e-11,
-4650000,4.6286e-11,
-4550000,4.5815e-11,
-4450000,4.673e-11,
-4350000,4.7492e-11,
-4250000,4.9793e-11,
-4150000,4.9413e-11,
-4050000,5.0061e-11,
-3950000,5.2407e-11,
-3850000,5.3249e-11,
-3750000,5.3304e-11,
-3650000,5.4362e-11,
-3550000,5.5347e-11,
-3450000,5.6083e-11,
-3350000,5.6783e-11,
-3250000,5.8235e-11,
-3150000,5.8972e-11,
-3050000,6.0736e-11,
-2950000,6.0919e-11,
-2850000,6.2466e-11,
-2750000,6.1226e-11,
-2650000,6.3439e-11,
-2550000,6.3448e-11,
-2450000,6.5233e-11,
-2350000,6.4327e-11,
-2250000,6.5899e-11,
-2150000,6.574e-11,
-2050000,6.6173e-11,
-1950000,6.7046e-11,
-1850000,6.7817e-11,
-1750000,6.6898e-11,
-1650000,6.6728e-11,
-1550000,6.7001e-11,
-1450000,6.7004e-11,
-1350000,6.8368e-11,
-1250000,6.7562e-11,
-1150000,6.5837e-11,
-1050000,6.7259e-11,
-950000,6.5895e-11,
-850000,6.7805e-11,
-750000,6.6213e-11,
-650000,6.6365e-11,
-550000,6.5843e-11,
-450000,6.6435e-11,
-350000,6.5836e-11,
-250000,6.5746e-11,
-150000,6.5452e-11,
-50000,6.4137e-11,
50000,6.456e-11,
150000,6.3512e-11,
