General parameters:
Start time: 2023              8             22              0             33      25.513495
Finish time: 2023              8             22              0             39      20.963286
Dwell time (ms): 3000.000000
Source chamber pressure: 2.00e+3
Differential chamber pressure: 7.98e-07
Sample chamber pressure: 3.78e-08
Example position (nm): -3926822.069367,89797.690414,-1000000.000000
Rotation angle (udeg): 54999630.000000
==========
Instrument status: 
0:Data Directory:/icon/data/2023_08_MoS2_5um_hbn_sub/
1:Sample:MoS2
2:Comments:no
3:PinholePlate:#C13
4:z_Zero:4200
5:Operator:djw77/nav31/kw570
==========
zscan inputs: 
z_sep:50000
z_range:200000 -5000000
data_path:/icon/data/2023_08_MoS2_5um_hbn_sub/
example_pos:-3926822.0694      89797.690414          -1000000
N_dwell:200
sampling_period:15
make_plots:0
m1:0.98976
m2:-0.0073571
==========
Detector params:
Sampling period (ms): 15.000000
N dwell: 200.000000
Filament current (A): 1.540000
Filament emission (mA): 1.748988
Solenoid current (A): NaN
Solenoid shim current (A): NaN
Lens params:
0  685
1  300
2  125
3      -0.002
4       -0.01
5       0.012
6         0.8
7         2.1
8         2.8
9  3000
10  1450
11         0.85
12   0
==========
Data:
z(nm),I(A)
200000,3.9905e-11,
100000,3.9294e-11,
0,3.9316e-11,
-100000,3.9193e-11,
-200000,3.9371e-11,
-300000,3.9703e-11,
-400000,3.9662e-11,
-500000,4.1569e-11,
-600000,4.1744e-11,
-700000,4.2822e-11,
-800000,4.3103e-11,
-900000,4.2834e-11,
-1000000,4.4732e-11,
-1100000,4.4921e-11,
-1200000,4.4197e-11,
-1300000,4.404e-11,
-1400000,4.5439e-11,
-1500000,4.5347e-11,
-1600000,4.6234e-11,
-1700000,4.5488e-11,
-1800000,4.6035e-11,
-1900000,4.5947e-11,
-2000000,4.4858e-11,
-2100000,4.5823e-11,
-2200000,4.5281e-11,
-2300000,4.4548e-11,
-2400000,4.3526e-11,
-2500000,4.456e-11,
-2600000,4.4821e-11,
-2700000,4.3758e-11,
-2800000,4.3239e-11,
-2900000,4.1783e-11,
-3000000,4.2187e-11,
-3100000,4.1748e-11,
-3200000,4.1045e-11,
-3300000,3.9112e-11,
-3400000,3.9176e-11,
-3500000,3.8603e-11,
-3600000,3.7527e-11,
-3700000,3.6802e-11,
-3800000,3.6272e-11,
-3900000,3.605e-11,
-4000000,3.5956e-11,
-4100000,3.5032e-11,
-4200000,3.3506e-11,
-4300000,3.3299e-11,
-4400000,3.2353e-11,
-4500000,3.2544e-11,
-4600000,3.1566e-11,
-4700000,3.1642e-11,
-4800000,3.0112e-11,
-4900000,2.9993e-11,
-5000000,2.9499e-11,
-4950000,2.9613e-11,
-4850000,2.974e-11,
-4750000,3.0408e-11,
-4650000,3.0957e-11,
-4550000,3.1464e-11,
-4450000,3.161e-11,
-4350000,3.3089e-11,
-4250000,3.3309e-11,
-4150000,3.3237e-11,
-4050000,3.4233e-11,
-3950000,3.5248e-11,
-3850000,3.6528e-11,
-3750000,3.4997e-11,
-3650000,3.6989e-11,
-3550000,3.8631e-11,
-3450000,3.8631e-11,
-3350000,3.9152e-11,
-3250000,3.9571e-11,
-3150000,4.0391e-11,
-3050000,4.0592e-11,
-2950000,4.1843e-11,
-2850000,4.2671e-11,
-2750000,4.2226e-11,
-2650000,4.3565e-11,
-2550000,4.3243e-11,
-2450000,4.3286e-11,
-2350000,4.5484e-11,
-2250000,4.5033e-11,
-2150000,4.5365e-11,
-2050000,4.5581e-11,
-1950000,4.4604e-11,
-1850000,4.5752e-11,
-1750000,4.5522e-11,
-1650000,4.5064e-11,
-1550000,4.6596e-11,
-1450000,4.4958e-11,
-1350000,4.4198e-11,
-1250000,4.4833e-11,
-1150000,4.4259e-11,
-1050000,4.4227e-11,
-950000,4.3923e-11,
-850000,4.3137e-11,
-750000,4.2871e-11,
-650000,4.2825e-11,
-550000,4.1191e-11,
-450000,4.0776e-11,
-350000,4.0336e-11,
-250000,3.9959e-11,
-150000,3.8718e-11,
-50000,3.8876e-11,
50000,3.8606e-11,
150000,3.9395e-11,
