General parameters:
Start time: 2023              8             22              1             21      41.070437
Finish time: 2023              8             22              1             27      42.238234
Dwell time (ms): 3000.000000
Source chamber pressure: 2.00e+3
Differential chamber pressure: 7.99e-07
Sample chamber pressure: 3.79e-08
Example position (nm): -3681183.380557,253888.539629,-1000000.000000
Rotation angle (udeg): 74999850.000000
==========
Instrument status: 
0:Data Directory:/icon/data/2023_08_MoS2_5um_hbn_sub/
1:Sample:MoS2
2:Comments:no
3:PinholePlate:#C13
4:z_Zero:4200
5:Operator:djw77/nav31/kw570
==========
zscan inputs: 
z_sep:50000
z_range:200000 -5000000
data_path:/icon/data/2023_08_MoS2_5um_hbn_sub/
example_pos:-3681183.3806      253888.53963          -1000000
N_dwell:200
sampling_period:15
make_plots:0
m1:0.98976
m2:-0.0073571
==========
Detector params:
Sampling period (ms): 15.000000
N dwell: 200.000000
Filament current (A): 1.540000
Filament emission (mA): 1.751040
Solenoid current (A): NaN
Solenoid shim current (A): NaN
Lens params:
0  685
1  300
2  125
3      -0.002
4       -0.01
5       0.012
6         0.8
7         2.1
8         2.8
9  3000
10  1450
11         0.85
12   0
==========
Data:
z(nm),I(A)
200000,3.99e-11,
100000,3.9768e-11,
0,3.9707e-11,
-100000,3.9593e-11,
-200000,4.0513e-11,
-300000,4.0863e-11,
-400000,4.0812e-11,
-500000,4.1021e-11,
-600000,4.1163e-11,
-700000,4.2915e-11,
-800000,4.2746e-11,
-900000,4.4151e-11,
-1000000,4.3951e-11,
-1100000,4.5363e-11,
-1200000,4.4662e-11,
-1300000,4.5023e-11,
-1400000,4.5864e-11,
-1500000,4.6317e-11,
-1600000,4.5891e-11,
-1700000,4.5552e-11,
-1800000,4.4792e-11,
-1900000,4.5432e-11,
-2000000,4.5971e-11,
-2100000,4.586e-11,
-2200000,4.5095e-11,
-2300000,4.4712e-11,
-2400000,4.5335e-11,
-2500000,4.3878e-11,
-2600000,4.3679e-11,
-2700000,4.3322e-11,
-2800000,4.2588e-11,
-2900000,4.2009e-11,
-3000000,4.06e-11,
-3100000,4.1493e-11,
-3200000,3.955e-11,
-3300000,3.9482e-11,
-3400000,3.8898e-11,
-3500000,3.8056e-11,
-3600000,3.7695e-11,
-3700000,3.6586e-11,
-3800000,3.6014e-11,
-3900000,3.6453e-11,
-4000000,3.5047e-11,
-4100000,3.4692e-11,
-4200000,3.2947e-11,
-4300000,3.2545e-11,
-4400000,3.1814e-11,
-4500000,3.2545e-11,
-4600000,3.1442e-11,
-4700000,3.1297e-11,
-4800000,3.0247e-11,
-4900000,2.9223e-11,
-5000000,2.8652e-11,
-4950000,2.9217e-11,
-4850000,3.046e-11,
-4750000,2.9709e-11,
-4650000,3.084e-11,
-4550000,3.1337e-11,
-4450000,3.2383e-11,
-4350000,3.2467e-11,
-4250000,3.3974e-11,
-4150000,3.4156e-11,
-4050000,3.4473e-11,
-3950000,3.4233e-11,
-3850000,3.6252e-11,
-3750000,3.6073e-11,
-3650000,3.8074e-11,
-3550000,3.8159e-11,
-3450000,3.8142e-11,
-3350000,3.9473e-11,
-3250000,4.079e-11,
-3150000,4.1017e-11,
-3050000,4.1408e-11,
-2950000,4.1865e-11,
-2850000,4.1427e-11,
-2750000,4.3258e-11,
-2650000,4.3475e-11,
-2550000,4.4234e-11,
-2450000,4.4553e-11,
-2350000,4.4589e-11,
-2250000,4.4768e-11,
-2150000,4.5034e-11,
-2050000,4.5486e-11,
-1950000,4.6302e-11,
-1850000,4.6068e-11,
-1750000,4.5024e-11,
-1650000,4.5681e-11,
-1550000,4.6686e-11,
-1450000,4.5554e-11,
-1350000,4.4509e-11,
-1250000,4.542e-11,
-1150000,4.4798e-11,
-1050000,4.4389e-11,
-950000,4.34e-11,
-850000,4.32e-11,
-750000,4.2483e-11,
-650000,4.2014e-11,
-550000,4.1187e-11,
-450000,4.158e-11,
-350000,4.0592e-11,
-250000,4.04e-11,
-150000,3.9826e-11,
-50000,3.9286e-11,
50000,3.97e-11,
150000,3.974e-11,
