General parameters:
Start time: 2023              8             21             20             27      19.533759
Finish time: 2023              8             21             20             33      14.975231
Dwell time (ms): 3000.000000
Source chamber pressure: 2.00e+3
Differential chamber pressure: 7.97e-07
Sample chamber pressure: 3.84e-08
Example position (nm): -3978141.089959,36201.125398,-1000000.000000
Rotation angle (udeg): 49999985.000000
==========
Instrument status: 
0:Data Directory:/icon/data/2023_08_MoS2_5um_hbn_sub/
1:Sample:MoS2
2:Comments:no
3:PinholePlate:#C13
4:z_Zero:4200
5:Operator:djw77/nav31/kw570
==========
zscan inputs: 
z_sep:50000
z_range:200000 -5000000
data_path:/icon/data/2023_08_MoS2_5um_hbn_sub/
example_pos:-3978141.09      36201.125398          -1000000
N_dwell:200
sampling_period:15
make_plots:0
m1:0.98976
m2:-0.0073571
==========
Detector params:
Sampling period (ms): 15.000000
N dwell: 200.000000
Filament current (A): 1.540000
Filament emission (mA): 1.736676
Solenoid current (A): NaN
Solenoid shim current (A): NaN
Lens params:
0  685
1  300
2  125
3      -0.002
4       -0.01
5       0.012
6         0.8
7         2.1
8         2.8
9  3000
10  1450
11         0.85
12   0
==========
Data:
z(nm),I(A)
200000,4.1959e-11,
100000,4.3043e-11,
0,4.0611e-11,
-100000,4.162e-11,
-200000,4.2797e-11,
-300000,4.2002e-11,
-400000,4.4333e-11,
-500000,4.4337e-11,
-600000,4.467e-11,
-700000,4.5592e-11,
-800000,4.4689e-11,
-900000,4.6054e-11,
-1000000,4.6868e-11,
-1100000,4.6788e-11,
-1200000,4.8062e-11,
-1300000,4.7817e-11,
-1400000,4.8831e-11,
-1500000,4.804e-11,
-1600000,4.9308e-11,
-1700000,4.8816e-11,
-1800000,4.8761e-11,
-1900000,4.8659e-11,
-2000000,4.911e-11,
-2100000,4.8635e-11,
-2200000,4.7648e-11,
-2300000,4.8834e-11,
-2400000,4.675e-11,
-2500000,4.7136e-11,
-2600000,4.5117e-11,
-2700000,4.6783e-11,
-2800000,4.4859e-11,
-2900000,4.5085e-11,
-3000000,4.3589e-11,
-3100000,4.3147e-11,
-3200000,4.3273e-11,
-3300000,4.2692e-11,
-3400000,4.0868e-11,
-3500000,3.9471e-11,
-3600000,4.0421e-11,
-3700000,3.9199e-11,
-3800000,3.8218e-11,
-3900000,3.7371e-11,
-4000000,3.6511e-11,
-4100000,3.6506e-11,
-4200000,3.596e-11,
-4300000,3.5031e-11,
-4400000,3.3755e-11,
-4500000,3.4006e-11,
-4600000,3.2997e-11,
-4700000,3.2437e-11,
-4800000,3.2876e-11,
-4900000,3.1834e-11,
-5000000,3.0714e-11,
-4950000,3.0862e-11,
-4850000,3.2019e-11,
-4750000,3.1741e-11,
-4650000,3.2258e-11,
-4550000,3.3076e-11,
-4450000,3.4639e-11,
-4350000,3.463e-11,
-4250000,3.5056e-11,
-4150000,3.5724e-11,
-4050000,3.6411e-11,
-3950000,3.7779e-11,
-3850000,3.7412e-11,
-3750000,3.9957e-11,
-3650000,3.9113e-11,
-3550000,4.0158e-11,
-3450000,4.1078e-11,
-3350000,4.1822e-11,
-3250000,4.1792e-11,
-3150000,4.2456e-11,
-3050000,4.3331e-11,
-2950000,4.3817e-11,
-2850000,4.4044e-11,
-2750000,4.559e-11,
-2650000,4.6278e-11,
-2550000,4.6709e-11,
-2450000,4.7237e-11,
-2350000,4.7569e-11,
-2250000,4.7222e-11,
-2150000,4.7627e-11,
-2050000,4.8036e-11,
-1950000,4.7834e-11,
-1850000,4.8687e-11,
-1750000,4.9764e-11,
-1650000,4.8286e-11,
-1550000,4.8678e-11,
-1450000,4.8637e-11,
-1350000,4.7453e-11,
-1250000,4.7175e-11,
-1150000,4.7586e-11,
-1050000,4.7194e-11,
-950000,4.6676e-11,
-850000,4.5632e-11,
-750000,4.4524e-11,
-650000,4.5113e-11,
-550000,4.4914e-11,
-450000,4.3639e-11,
-350000,4.3109e-11,
-250000,4.3767e-11,
-150000,4.2292e-11,
-50000,4.225e-11,
50000,4.2233e-11,
150000,4.2507e-11,
