General parameters:
Start time: 2023              8             19             15             57      45.609565
Finish time: 2023              8             19             16              3      42.914572
Dwell time (ms): 3000.000000
Source chamber pressure: 2.00e+3
Differential chamber pressure: 7.96e-07
Sample chamber pressure: 3.84e-08
Example position (nm): -3350242.568868,294688.265147,-1000000.000000
Rotation angle (udeg): 97500120.000000
==========
Instrument status: 
0:Data Directory:/icon/data/2023_08_MoS2_5um_hbn_sub/
1:Sample:MoS2
2:Comments:no
3:PinholePlate:#C13
4:z_Zero:4200
5:Operator:djw77/nav31/kw570
==========
zscan inputs: 
z_sep:50000
z_range:200000 -5000000
data_path:/icon/data/2023_08_MoS2_5um_hbn_sub/
example_pos:-3350242.5689      294688.26515          -1000000
N_dwell:200
sampling_period:15
make_plots:0
m1:0.98976
m2:-0.0073571
==========
Detector params:
Sampling period (ms): 15.000000
N dwell: 200.000000
Filament current (A): 1.540000
Filament emission (mA): 1.686744
Solenoid current (A): NaN
Solenoid shim current (A): NaN
Lens params:
0  685
1  300
2  125
3      -0.002
4       -0.01
5       0.012
6         0.8
7         2.1
8         2.8
9  3000
10  1450
11         0.85
12   0
==========
Data:
z(nm),I(A)
200000,4.9442e-11,
100000,5.1364e-11,
0,5.2801e-11,
-100000,5.2646e-11,
-200000,5.3039e-11,
-300000,5.1917e-11,
-400000,5.2369e-11,
-500000,5.489e-11,
-600000,6.0088e-11,
-700000,7.3294e-11,
-800000,9.4436e-11,
-900000,1.2068e-10,
-1000000,1.2237e-10,
-1100000,1.0124e-10,
-1200000,7.9483e-11,
-1300000,6.4565e-11,
-1400000,5.6602e-11,
-1500000,5.2505e-11,
-1600000,5.2031e-11,
-1700000,5.1081e-11,
-1800000,5.0496e-11,
-1900000,4.829e-11,
-2000000,4.6605e-11,
-2100000,4.7003e-11,
-2200000,4.8924e-11,
-2300000,5.3063e-11,
-2400000,5.9813e-11,
-2500000,6.3263e-11,
-2600000,6.2974e-11,
-2700000,5.987e-11,
-2800000,5.2201e-11,
-2900000,4.476e-11,
-3000000,4.3251e-11,
-3100000,3.922e-11,
-3200000,3.8157e-11,
-3300000,3.8359e-11,
-3400000,3.7295e-11,
-3500000,3.6192e-11,
-3600000,3.5543e-11,
-3700000,3.4195e-11,
-3800000,3.2787e-11,
-3900000,3.1611e-11,
-4000000,3.0942e-11,
-4100000,3.0249e-11,
-4200000,3.0775e-11,
-4300000,3.1708e-11,
-4400000,3.216e-11,
-4500000,3.2205e-11,
-4600000,3.1992e-11,
-4700000,2.9982e-11,
-4800000,2.9822e-11,
-4900000,2.8788e-11,
-5000000,2.7639e-11,
-4950000,2.845e-11,
-4850000,2.9044e-11,
-4750000,3.042e-11,
-4650000,3.2355e-11,
-4550000,3.1501e-11,
-4450000,3.1734e-11,
-4350000,3.1791e-11,
-4250000,3.1579e-11,
-4150000,3.1509e-11,
-4050000,3.1595e-11,
-3950000,3.1644e-11,
-3850000,3.3064e-11,
-3750000,3.4034e-11,
-3650000,3.5409e-11,
-3550000,3.6086e-11,
-3450000,3.7721e-11,
-3350000,3.6452e-11,
-3250000,3.8119e-11,
-3150000,3.8752e-11,
-3050000,3.9546e-11,
-2950000,4.2923e-11,
-2850000,4.8025e-11,
-2750000,5.5484e-11,
-2650000,6.1182e-11,
-2550000,6.2836e-11,
-2450000,6.2839e-11,
-2350000,5.682e-11,
-2250000,5.2368e-11,
-2150000,4.8088e-11,
-2050000,4.6438e-11,
-1950000,4.7057e-11,
-1850000,4.9326e-11,
-1750000,5.1854e-11,
-1650000,5.1283e-11,
-1550000,5.0561e-11,
-1450000,5.3873e-11,
-1350000,5.7885e-11,
-1250000,6.853e-11,
-1150000,8.7297e-11,
-1050000,1.1449e-10,
-950000,1.2301e-10,
-850000,1.1111e-10,
-750000,8.468e-11,
-650000,6.6979e-11,
-550000,5.6518e-11,
-450000,5.3394e-11,
-350000,5.2626e-11,
-250000,5.296e-11,
-150000,5.2292e-11,
-50000,5.3292e-11,
50000,5.1967e-11,
150000,4.9702e-11,
