General parameters:
Start time: 2023              8             21             16             42      49.015676
Finish time: 2023              8             21             16             48      43.218184
Dwell time (ms): 3000.000000
Source chamber pressure: 2.00e+3
Differential chamber pressure: 7.97e-07
Sample chamber pressure: 3.79e-08
Example position (nm): -3001878.144832,240929.948396,-1000000.000000
Rotation angle (udeg): 122500175.000000
==========
Instrument status: 
0:Data Directory:/icon/data/2023_08_MoS2_5um_hbn_sub/
1:Sample:MoS2
2:Comments:no
3:PinholePlate:#C13
4:z_Zero:4200
5:Operator:djw77/nav31/kw570
==========
zscan inputs: 
z_sep:50000
z_range:200000 -5000000
data_path:/icon/data/2023_08_MoS2_5um_hbn_sub/
example_pos:-3001878.1448       240929.9484          -1000000
N_dwell:200
sampling_period:15
make_plots:0
m1:0.98976
m2:-0.0073571
==========
Detector params:
Sampling period (ms): 15.000000
N dwell: 200.000000
Filament current (A): 1.540000
Filament emission (mA): 1.740096
Solenoid current (A): NaN
Solenoid shim current (A): NaN
Lens params:
0  685
1  300
2  125
3      -0.002
4       -0.01
5       0.012
6         0.8
7         2.1
8         2.8
9  3000
10  1450
11         0.85
12   0
==========
Data:
z(nm),I(A)
200000,4.5558e-11,
100000,4.5986e-11,
0,4.5672e-11,
-100000,4.6153e-11,
-200000,4.5768e-11,
-300000,4.5509e-11,
-400000,4.6413e-11,
-500000,4.6519e-11,
-600000,4.7486e-11,
-700000,4.8407e-11,
-800000,4.7249e-11,
-900000,4.801e-11,
-1000000,4.8498e-11,
-1100000,4.8504e-11,
-1200000,4.7994e-11,
-1300000,4.7999e-11,
-1400000,4.799e-11,
-1500000,4.8112e-11,
-1600000,4.8934e-11,
-1700000,4.9756e-11,
-1800000,4.867e-11,
-1900000,4.8004e-11,
-2000000,4.8346e-11,
-2100000,4.827e-11,
-2200000,4.7399e-11,
-2300000,4.6881e-11,
-2400000,4.7634e-11,
-2500000,4.6546e-11,
-2600000,4.582e-11,
-2700000,4.5192e-11,
-2800000,4.5016e-11,
-2900000,4.407e-11,
-3000000,4.3858e-11,
-3100000,4.2637e-11,
-3200000,4.2635e-11,
-3300000,4.1394e-11,
-3400000,3.9639e-11,
-3500000,3.9841e-11,
-3600000,3.9337e-11,
-3700000,3.7758e-11,
-3800000,3.7363e-11,
-3900000,3.7161e-11,
-4000000,3.7215e-11,
-4100000,3.5653e-11,
-4200000,3.4996e-11,
-4300000,3.4394e-11,
-4400000,3.3472e-11,
-4500000,3.3165e-11,
-4600000,3.2892e-11,
-4700000,3.1802e-11,
-4800000,3.2139e-11,
-4900000,3.1383e-11,
-5000000,3.0875e-11,
-4950000,3.0916e-11,
-4850000,3.1789e-11,
-4750000,3.1561e-11,
-4650000,3.2451e-11,
-4550000,3.3055e-11,
-4450000,3.3121e-11,
-4350000,3.4507e-11,
-4250000,3.4696e-11,
-4150000,3.512e-11,
-4050000,3.5864e-11,
-3950000,3.6476e-11,
-3850000,3.721e-11,
-3750000,3.8024e-11,
-3650000,3.8844e-11,
-3550000,4.0229e-11,
-3450000,4.0472e-11,
-3350000,4.0455e-11,
-3250000,4.2239e-11,
-3150000,4.2336e-11,
-3050000,4.3221e-11,
-2950000,4.3815e-11,
-2850000,4.4174e-11,
-2750000,4.5094e-11,
-2650000,4.5619e-11,
-2550000,4.6708e-11,
-2450000,4.5688e-11,
-2350000,4.7397e-11,
-2250000,4.7246e-11,
-2150000,4.8427e-11,
-2050000,4.733e-11,
-1950000,4.8585e-11,
-1850000,4.9476e-11,
-1750000,4.7931e-11,
-1650000,4.8713e-11,
-1550000,4.8539e-11,
-1450000,4.8193e-11,
-1350000,4.7369e-11,
-1250000,4.8526e-11,
-1150000,4.9102e-11,
-1050000,4.7975e-11,
-950000,4.7868e-11,
-850000,4.735e-11,
-750000,4.7275e-11,
-650000,4.721e-11,
-550000,4.7139e-11,
-450000,4.7375e-11,
-350000,4.6668e-11,
-250000,4.6617e-11,
-150000,4.5821e-11,
-50000,4.6353e-11,
50000,4.5716e-11,
150000,4.6186e-11,
