General parameters:
Start time: 2023              8             29              6             47      13.797426
Finish time: 2023              8             29              6             54      17.513208
Dwell time (ms): 3000.000000
Source chamber pressure: 2.00e+3
Differential chamber pressure: 6.02e-07
Sample chamber pressure: 3.62e-08
Example position (nm): -2666555.252427,60819.858154,-1000000.000000
Rotation angle (udeg): 144999865.000000
==========
Instrument status: 
0:Data Directory:/icon/data/2023_08_MoS2_5um_hbn_sub/
1:Sample:MoS2
2:Comments:no
3:PinholePlate:#C13
4:z_Zero:4200
5:Operator:djw77/nav31/kw570
==========
zscan inputs: 
z_sep:50000
z_range:200000 -6000000
data_path:/icon/data/2023_08_MoS2_5um_hbn_sub/
example_pos:-2666555.2524      60819.858154          -1000000
N_dwell:200
sampling_period:15
make_plots:1
m1:0.98976
m2:-0.0073571
==========
Detector params:
Sampling period (ms): 15.000000
N dwell: 200.000000
Filament current (A): 1.540000
Filament emission (mA): 1.924776
Solenoid current (A): NaN
Solenoid shim current (A): NaN
Lens params:
0  685
1  300
2  125
3      -0.002
4       -0.01
5       0.012
6         0.8
7         2.1
8         2.8
9  3000
10  1450
11         0.85
12   0
==========
Data:
z(nm),I(A)
200000,6.1658e-11,
100000,6.2693e-11,
0,6.2877e-11,
-100000,6.4116e-11,
-200000,6.4241e-11,
-300000,6.5482e-11,
-400000,6.4833e-11,
-500000,6.5122e-11,
-600000,6.512e-11,
-700000,6.5601e-11,
-800000,6.5899e-11,
-900000,6.6575e-11,
-1000000,6.579e-11,
-1100000,6.6206e-11,
-1200000,6.7708e-11,
-1300000,6.6443e-11,
-1400000,6.7209e-11,
-1500000,6.6523e-11,
-1600000,6.7663e-11,
-1700000,6.6847e-11,
-1800000,6.726e-11,
-1900000,6.8869e-11,
-2000000,6.7733e-11,
-2100000,6.5655e-11,
-2200000,6.5518e-11,
-2300000,6.5884e-11,
-2400000,6.4825e-11,
-2500000,6.625e-11,
-2600000,6.3975e-11,
-2700000,6.3762e-11,
-2800000,6.1811e-11,
-2900000,6.088e-11,
-3000000,6.0234e-11,
-3100000,6.0113e-11,
-3200000,5.8235e-11,
-3300000,5.7785e-11,
-3400000,5.7376e-11,
-3500000,5.6309e-11,
-3600000,5.4528e-11,
-3700000,5.5509e-11,
-3800000,5.2486e-11,
-3900000,5.2757e-11,
-4000000,5.1385e-11,
-4100000,5.1853e-11,
-4200000,4.894e-11,
-4300000,4.6724e-11,
-4400000,4.7982e-11,
-4500000,4.6479e-11,
-4600000,4.5962e-11,
-4700000,4.5442e-11,
-4800000,4.4703e-11,
-4900000,4.4326e-11,
-5000000,4.3114e-11,
-5100000,4.2982e-11,
-5200000,4.1498e-11,
-5300000,4.1671e-11,
-5400000,4.0238e-11,
-5500000,4.0188e-11,
-5600000,3.9329e-11,
-5700000,3.8751e-11,
-5800000,3.8711e-11,
-5900000,3.8732e-11,
-6000000,3.793e-11,
-5950000,3.8232e-11,
-5850000,3.8019e-11,
-5750000,3.8596e-11,
-5650000,3.9838e-11,
-5550000,4.0388e-11,
-5450000,4.1106e-11,
-5350000,4.0347e-11,
-5250000,4.1798e-11,
-5150000,4.2621e-11,
-5050000,4.2872e-11,
-4950000,4.368e-11,
-4850000,4.4502e-11,
-4750000,4.4782e-11,
-4650000,4.6476e-11,
-4550000,4.7127e-11,
-4450000,4.7783e-11,
-4350000,4.8171e-11,
-4250000,4.9207e-11,
-4150000,5.026e-11,
-4050000,5.1043e-11,
-3950000,5.1385e-11,
-3850000,5.2446e-11,
-3750000,5.3763e-11,
-3650000,5.4528e-11,
-3550000,5.4694e-11,
-3450000,5.7065e-11,
-3350000,5.7001e-11,
-3250000,5.7901e-11,
-3150000,5.8371e-11,
-3050000,6.0449e-11,
-2950000,5.9558e-11,
-2850000,6.1152e-11,
-2750000,6.2524e-11,
-2650000,6.261e-11,
-2550000,6.3806e-11,
-2450000,6.4934e-11,
-2350000,6.3968e-11,
-2250000,6.5614e-11,
-2150000,6.592e-11,
-2050000,6.6808e-11,
-1950000,6.6758e-11,
-1850000,6.6974e-11,
-1750000,6.7409e-11,
-1650000,6.7046e-11,
-1550000,6.6031e-11,
-1450000,6.6993e-11,
-1350000,6.8746e-11,
-1250000,6.6772e-11,
-1150000,6.7474e-11,
-1050000,6.7479e-11,
-950000,6.7047e-11,
-850000,6.638e-11,
-750000,6.591e-11,
-650000,6.592e-11,
-550000,6.4965e-11,
-450000,6.5462e-11,
-350000,6.4468e-11,
-250000,6.4456e-11,
-150000,6.4604e-11,
-50000,6.3983e-11,
50000,6.3567e-11,
150000,6.2067e-11,
