General parameters:
Start time: 2023              8             18             18             32      47.682653
Finish time: 2023              8             18             18             38       44.06281
Dwell time (ms): 3000.000000
Source chamber pressure: 2.00e+3
Differential chamber pressure: 7.95e-07
Sample chamber pressure: 3.84e-08
Example position (nm): -3522829.747098,265394.280218,-1000000.000000
Rotation angle (udeg): 85000190.000000
==========
Instrument status: 
0:Data Directory:/icon/data/2023_08_MoS2_5um_hbn_sub/
1:Sample:MoS2
2:Comments:no
3:PinholePlate:#C13
4:z_Zero:4200
5:Operator:djw77/nav31/kw570
==========
zscan inputs: 
z_sep:50000
z_range:200000 -5000000
data_path:/icon/data/2023_08_MoS2_5um_hbn_sub/
example_pos:-3522829.7471      265394.28022          -1000000
N_dwell:200
sampling_period:15
make_plots:0
m1:0.98976
m2:-0.0073571
==========
Detector params:
Sampling period (ms): 15.000000
N dwell: 200.000000
Filament current (A): 1.540000
Filament emission (mA): 1.664172
Solenoid current (A): NaN
Solenoid shim current (A): NaN
Lens params:
0  685
1  300
2  125
3      -0.002
4       -0.01
5       0.012
6         0.8
7         2.1
8         2.8
9  3000
10  1450
11         0.85
12   0
==========
Data:
z(nm),I(A)
200000,4.2502e-11,
100000,4.2792e-11,
0,4.3332e-11,
-100000,4.1096e-11,
-200000,4.0774e-11,
-300000,4.0732e-11,
-400000,4.0559e-11,
-500000,4.2146e-11,
-600000,4.2404e-11,
-700000,4.5044e-11,
-800000,4.3668e-11,
-900000,4.1558e-11,
-1000000,4.3795e-11,
-1100000,4.4955e-11,
-1200000,4.8151e-11,
-1300000,4.8679e-11,
-1400000,4.7981e-11,
-1500000,4.7107e-11,
-1600000,4.7247e-11,
-1700000,4.5454e-11,
-1800000,4.4099e-11,
-1900000,4.2218e-11,
-2000000,4.2624e-11,
-2100000,4.1928e-11,
-2200000,4.0853e-11,
-2300000,4.1035e-11,
-2400000,4.1301e-11,
-2500000,4.1223e-11,
-2600000,3.9672e-11,
-2700000,3.9016e-11,
-2800000,3.8952e-11,
-2900000,3.7058e-11,
-3000000,3.6829e-11,
-3100000,3.6849e-11,
-3200000,3.6203e-11,
-3300000,3.6038e-11,
-3400000,3.5264e-11,
-3500000,3.4251e-11,
-3600000,3.3341e-11,
-3700000,3.4109e-11,
-3800000,3.2272e-11,
-3900000,3.2606e-11,
-4000000,3.1798e-11,
-4100000,3.1125e-11,
-4200000,3.0488e-11,
-4300000,2.8613e-11,
-4400000,2.9006e-11,
-4500000,2.8579e-11,
-4600000,2.7314e-11,
-4700000,2.7378e-11,
-4800000,2.6583e-11,
-4900000,2.6337e-11,
-5000000,2.6546e-11,
-4950000,2.7144e-11,
-4850000,2.6347e-11,
-4750000,2.737e-11,
-4650000,2.7785e-11,
-4550000,2.8065e-11,
-4450000,2.8308e-11,
-4350000,2.9093e-11,
-4250000,2.9108e-11,
-4150000,3.0055e-11,
-4050000,3.1096e-11,
-3950000,3.1946e-11,
-3850000,3.2365e-11,
-3750000,3.2185e-11,
-3650000,3.2966e-11,
-3550000,3.4376e-11,
-3450000,3.5029e-11,
-3350000,3.5048e-11,
-3250000,3.5178e-11,
-3150000,3.6776e-11,
-3050000,3.7117e-11,
-2950000,3.8473e-11,
-2850000,3.8705e-11,
-2750000,3.8569e-11,
-2650000,3.9704e-11,
-2550000,4.0337e-11,
-2450000,4.0673e-11,
-2350000,4.1166e-11,
-2250000,4.1412e-11,
-2150000,4.0931e-11,
-2050000,4.2422e-11,
-1950000,4.3019e-11,
-1850000,4.3168e-11,
-1750000,4.3595e-11,
-1650000,4.4244e-11,
-1550000,4.4736e-11,
-1450000,4.6829e-11,
-1350000,4.7213e-11,
-1250000,4.9437e-11,
-1150000,4.6008e-11,
-1050000,4.4414e-11,
-950000,4.1265e-11,
-850000,4.1509e-11,
-750000,4.3695e-11,
-650000,4.4435e-11,
-550000,4.1688e-11,
-450000,4.1204e-11,
-350000,3.9841e-11,
-250000,4.156e-11,
-150000,4.1562e-11,
-50000,4.3125e-11,
50000,4.5758e-11,
150000,4.4722e-11,
