General parameters:
Start time: 2023              8             16             14             42       5.285403
Finish time: 2023              8             16             14             57       9.274299
Dwell time (ms): 3750.000000
Source chamber pressure: 2.00e+3
Differential chamber pressure: 7.93e-07
Sample chamber pressure: 3.94e-08
Example position (nm): -3472000.000000,305000.000000,-1000000.000000
Rotation angle (udeg): 89999950.000000
==========
Instrument status: 
0:Data Directory:/icon/data/2023_08_MoS2_5um_hbn_sub/
1:Sample:MoS2
2:Comments:no
3:PinholePlate:#C13
4:z_Zero:4200
5:Operator:djw77/nav31/kw570
==========
zscan inputs: 
z_sep:30000
z_range:500000 -6000000
data_path:/icon/data/2023_08_MoS2_5um_hbn_sub/
example_pos:-3472000   305000 -1000000
N_dwell:250
sampling_period:15
make_plots:1
m1:0.98534
m2:-0.0012405
==========
Detector params:
Sampling period (ms): 15.000000
N dwell: 250.000000
Filament current (A): 1.540000
Filament emission (mA): 1.640916
Solenoid current (A): NaN
Solenoid shim current (A): NaN
Lens params:
0  685
1  300
2  125
3      -0.002
4       -0.01
5       0.012
6         0.8
7         2.1
8         2.8
9  3000
10  1450
11         0.85
12   0
==========
Data:
z(nm),I(A)
500000,8.9679e-11,
440000,9.1204e-11,
380000,9.177e-11,
320000,9.2968e-11,
260000,9.5808e-11,
200000,9.6456e-11,
140000,9.7836e-11,
80000,9.7684e-11,
20000,9.9818e-11,
-40000,1.0058e-10,
-100000,1.0206e-10,
-160000,1.0434e-10,
-220000,1.0459e-10,
-280000,1.0708e-10,
-340000,1.0663e-10,
-400000,1.057e-10,
-460000,1.074e-10,
-520000,1.0665e-10,
-580000,1.0896e-10,
-640000,1.0963e-10,
-700000,1.0944e-10,
-760000,1.0895e-10,
-820000,1.1125e-10,
-880000,1.1285e-10,
-940000,1.1504e-10,
-1000000,1.1429e-10,
-1060000,1.1518e-10,
-1120000,1.1249e-10,
-1180000,1.1218e-10,
-1240000,1.0951e-10,
-1300000,1.0821e-10,
-1360000,1.0625e-10,
-1420000,1.0503e-10,
-1480000,1.0437e-10,
-1540000,1.0271e-10,
-1600000,1.0334e-10,
-1660000,1.031e-10,
-1720000,1.0229e-10,
-1780000,1.0205e-10,
-1840000,1.0254e-10,
-1900000,1.0045e-10,
-1960000,1.0087e-10,
-2020000,1.0116e-10,
-2080000,9.9906e-11,
-2140000,1.0161e-10,
-2200000,1.002e-10,
-2260000,1.0216e-10,
-2320000,1.0337e-10,
-2380000,1.0207e-10,
-2440000,1.0399e-10,
-2500000,1.0557e-10,
-2560000,1.0457e-10,
-2620000,1.0432e-10,
-2680000,1.0461e-10,
-2740000,1.0048e-10,
-2800000,9.8523e-11,
-2860000,9.7804e-11,
-2920000,9.3879e-11,
-2980000,9.3204e-11,
-3040000,9.2317e-11,
-3100000,9.1011e-11,
-3160000,9.1588e-11,
-3220000,9.0987e-11,
-3280000,8.9695e-11,
-3340000,8.7537e-11,
-3400000,8.8121e-11,
-3460000,8.6648e-11,
-3520000,8.619e-11,
-3580000,8.6447e-11,
-3640000,8.1345e-11,
-3700000,8.3098e-11,
-3760000,8.1102e-11,
-3820000,7.8892e-11,
-3880000,7.6864e-11,
-3940000,7.6417e-11,
-4000000,7.6585e-11,
-4060000,7.6002e-11,
-4120000,7.275e-11,
-4180000,7.2136e-11,
-4240000,7.1902e-11,
-4300000,7.0803e-11,
-4360000,7.097e-11,
-4420000,7.0932e-11,
-4480000,6.9754e-11,
-4540000,6.8489e-11,
-4600000,6.7614e-11,
-4660000,6.7036e-11,
-4720000,6.639e-11,
-4780000,6.7762e-11,
-4840000,6.4573e-11,
-4900000,6.3896e-11,
-4960000,6.3903e-11,
-5020000,6.3615e-11,
-5080000,6.374e-11,
-5140000,6.2629e-11,
-5200000,6.2434e-11,
-5260000,6.1332e-11,
-5320000,6.1791e-11,
-5380000,6.0746e-11,
-5440000,6.2772e-11,
-5500000,6.1476e-11,
-5560000,6.0509e-11,
-5620000,5.9771e-11,
-5680000,6.026e-11,
-5740000,6.1296e-11,
-5800000,5.9286e-11,
-5860000,5.8181e-11,
-5920000,5.7718e-11,
-5980000,5.7614e-11,
-5950000,5.8084e-11,
-5890000,5.9003e-11,
-5830000,5.8298e-11,
-5770000,5.9903e-11,
-5710000,5.9118e-11,
-5650000,5.9815e-11,
-5590000,6.0211e-11,
-5530000,6.0659e-11,
-5470000,6.1328e-11,
-5410000,6.2343e-11,
-5350000,6.0488e-11,
-5290000,6.264e-11,
-5230000,6.2396e-11,
-5170000,6.3441e-11,
-5110000,6.3497e-11,
-5050000,6.3101e-11,
-4990000,6.4523e-11,
-4930000,6.5706e-11,
-4870000,6.5216e-11,
-4810000,6.6317e-11,
-4750000,6.657e-11,
-4690000,6.6574e-11,
-4630000,6.709e-11,
-4570000,6.9988e-11,
-4510000,6.9335e-11,
-4450000,7.0342e-11,
-4390000,7.0695e-11,
-4330000,7.2412e-11,
-4270000,7.2861e-11,
-4210000,7.3251e-11,
-4150000,7.31e-11,
-4090000,7.4834e-11,
-4030000,7.5802e-11,
-3970000,7.6165e-11,
-3910000,7.7119e-11,
-3850000,7.7926e-11,
-3790000,8.0435e-11,
-3730000,8.0522e-11,
-3670000,8.2611e-11,
-3610000,8.373e-11,
-3550000,8.3714e-11,
-3490000,8.591e-11,
-3430000,8.8476e-11,
-3370000,8.7997e-11,
-3310000,8.8693e-11,
-3250000,8.9463e-11,
-3190000,9.1484e-11,
-3130000,9.216e-11,
-3070000,9.2882e-11,
-3010000,9.2873e-11,
-2950000,9.438e-11,
-2890000,9.5479e-11,
-2830000,9.806e-11,
-2770000,9.9376e-11,
-2710000,1.0236e-10,
-2650000,1.0526e-10,
-2590000,1.0538e-10,
-2530000,1.059e-10,
-2470000,1.0454e-10,
-2410000,1.0465e-10,
-2350000,1.0304e-10,
-2290000,1.0131e-10,
-2230000,1.0039e-10,
-2170000,1.0056e-10,
-2110000,1.0035e-10,
-2050000,1.0099e-10,
-1990000,1.0159e-10,
-1930000,1.0011e-10,
-1870000,1.0067e-10,
-1810000,1.0139e-10,
-1750000,1.0198e-10,
-1690000,1.0296e-10,
-1630000,1.0327e-10,
-1570000,1.0301e-10,
-1510000,1.0358e-10,
-1450000,1.0363e-10,
-1390000,1.0628e-10,
-1330000,1.0793e-10,
-1270000,1.0976e-10,
-1210000,1.1045e-10,
-1150000,1.1362e-10,
-1090000,1.1501e-10,
-1030000,1.1638e-10,
-970000,1.158e-10,
-910000,1.1546e-10,
-850000,1.1236e-10,
-790000,1.0995e-10,
-730000,1.0977e-10,
-670000,1.1007e-10,
-610000,1.0948e-10,
-550000,1.0896e-10,
-490000,1.0571e-10,
-430000,1.0539e-10,
-370000,1.059e-10,
-310000,1.0593e-10,
-250000,1.0587e-10,
-190000,1.0404e-10,
-130000,1.035e-10,
-70000,1.0237e-10,
-10000,9.9622e-11,
50000,9.854e-11,
110000,9.64e-11,
170000,9.5841e-11,
230000,9.6009e-11,
290000,9.4245e-11,
350000,9.3241e-11,
410000,9.1721e-11,
470000,9.0998e-11,
