General parameters:
Start time: 2023              8             22             11             24      35.804364
Finish time: 2023              8             22             11             30      30.748479
Dwell time (ms): 3000.000000
Source chamber pressure: 2.00e+3
Differential chamber pressure: 7.96e-07
Sample chamber pressure: 3.84e-08
Example position (nm): -3829961.326431,95113.592262,-1000000.000000
Rotation angle (udeg): 57499755.000000
==========
Instrument status: 
0:Data Directory:/icon/data/2023_08_MoS2_5um_hbn_sub/
1:Sample:MoS2
2:Comments:no
3:PinholePlate:#C13
4:z_Zero:4200
5:Operator:djw77/nav31/kw570
==========
zscan inputs: 
z_sep:50000
z_range:200000 -5000000
data_path:/icon/data/2023_08_MoS2_5um_hbn_sub/
example_pos:-3829961.3264      95113.592262          -1000000
N_dwell:200
sampling_period:15
make_plots:0
m1:0.98976
m2:-0.0073571
==========
Detector params:
Sampling period (ms): 15.000000
N dwell: 200.000000
Filament current (A): 1.540000
Filament emission (mA): 1.750014
Solenoid current (A): NaN
Solenoid shim current (A): NaN
Lens params:
0  685
1  300
2  125
3      -0.002
4       -0.01
5       0.012
6         0.8
7         2.1
8         2.8
9  3000
10  1450
11         0.85
12   0
==========
Data:
z(nm),I(A)
200000,4.0964e-11,
100000,4.0069e-11,
0,4.0252e-11,
-100000,4.0053e-11,
-200000,4.0275e-11,
-300000,4.0674e-11,
-400000,4.0657e-11,
-500000,4.1561e-11,
-600000,4.3167e-11,
-700000,4.2653e-11,
-800000,4.3916e-11,
-900000,4.4715e-11,
-1000000,4.4968e-11,
-1100000,4.5204e-11,
-1200000,4.5156e-11,
-1300000,4.4812e-11,
-1400000,4.6711e-11,
-1500000,4.5758e-11,
-1600000,4.6055e-11,
-1700000,4.5303e-11,
-1800000,4.7e-11,
-1900000,4.6157e-11,
-2000000,4.5798e-11,
-2100000,4.6712e-11,
-2200000,4.59e-11,
-2300000,4.5115e-11,
-2400000,4.5131e-11,
-2500000,4.5785e-11,
-2600000,4.4411e-11,
-2700000,4.3086e-11,
-2800000,4.34e-11,
-2900000,4.2734e-11,
-3000000,4.2478e-11,
-3100000,4.1988e-11,
-3200000,4.0348e-11,
-3300000,4.0402e-11,
-3400000,3.9199e-11,
-3500000,3.8356e-11,
-3600000,3.9049e-11,
-3700000,3.7561e-11,
-3800000,3.6838e-11,
-3900000,3.5889e-11,
-4000000,3.6406e-11,
-4100000,3.5787e-11,
-4200000,3.5337e-11,
-4300000,3.3568e-11,
-4400000,3.2626e-11,
-4500000,3.28e-11,
-4600000,3.1718e-11,
-4700000,3.2148e-11,
-4800000,3.1213e-11,
-4900000,3.0463e-11,
-5000000,2.9626e-11,
-4950000,3.0303e-11,
-4850000,2.9848e-11,
-4750000,3.0798e-11,
-4650000,3.1959e-11,
-4550000,3.1246e-11,
-4450000,3.2397e-11,
-4350000,3.3408e-11,
-4250000,3.4686e-11,
-4150000,3.4346e-11,
-4050000,3.5701e-11,
-3950000,3.5552e-11,
-3850000,3.6713e-11,
-3750000,3.7082e-11,
-3650000,3.7791e-11,
-3550000,3.8845e-11,
-3450000,3.9437e-11,
-3350000,3.9951e-11,
-3250000,3.9878e-11,
-3150000,4.1528e-11,
-3050000,4.2424e-11,
-2950000,4.2162e-11,
-2850000,4.3908e-11,
-2750000,4.3067e-11,
-2650000,4.4648e-11,
-2550000,4.5786e-11,
-2450000,4.4903e-11,
-2350000,4.5375e-11,
-2250000,4.5581e-11,
-2150000,4.548e-11,
-2050000,4.5902e-11,
-1950000,4.6137e-11,
-1850000,4.6341e-11,
-1750000,4.6283e-11,
-1650000,4.6377e-11,
-1550000,4.6199e-11,
-1450000,4.6415e-11,
-1350000,4.5928e-11,
-1250000,4.6124e-11,
-1150000,4.5029e-11,
-1050000,4.5236e-11,
-950000,4.428e-11,
-850000,4.4376e-11,
-750000,4.3738e-11,
-650000,4.2864e-11,
-550000,4.265e-11,
-450000,4.2104e-11,
-350000,4.1004e-11,
-250000,4.0328e-11,
-150000,4.0504e-11,
-50000,3.9749e-11,
50000,4.0841e-11,
150000,4.05e-11,
