General parameters:
Start time: 2023              8             18             18              8      38.894695
Finish time: 2023              8             18             18             14      34.999549
Dwell time (ms): 3000.000000
Source chamber pressure: 2.00e+3
Differential chamber pressure: 7.95e-07
Sample chamber pressure: 3.84e-08
Example position (nm): -3672940.633967,214181.007911,-1000000.000000
Rotation angle (udeg): 75000135.000000
==========
Instrument status: 
0:Data Directory:/icon/data/2023_08_MoS2_5um_hbn_sub/
1:Sample:MoS2
2:Comments:no
3:PinholePlate:#C13
4:z_Zero:4200
5:Operator:djw77/nav31/kw570
==========
zscan inputs: 
z_sep:50000
z_range:200000 -5000000
data_path:/icon/data/2023_08_MoS2_5um_hbn_sub/
example_pos:-3672940.634      214181.00791          -1000000
N_dwell:200
sampling_period:15
make_plots:0
m1:0.98976
m2:-0.0073571
==========
Detector params:
Sampling period (ms): 15.000000
N dwell: 200.000000
Filament current (A): 1.540000
Filament emission (mA): 1.660752
Solenoid current (A): NaN
Solenoid shim current (A): NaN
Lens params:
0  685
1  300
2  125
3      -0.002
4       -0.01
5       0.012
6         0.8
7         2.1
8         2.8
9  3000
10  1450
11         0.85
12   0
==========
Data:
z(nm),I(A)
200000,4.507e-11,
100000,4.7468e-11,
0,4.4398e-11,
-100000,4.2846e-11,
-200000,4.2722e-11,
-300000,4.3494e-11,
-400000,4.3132e-11,
-500000,4.4516e-11,
-600000,4.5873e-11,
-700000,4.7551e-11,
-800000,4.6469e-11,
-900000,4.686e-11,
-1000000,4.7933e-11,
-1100000,5.3435e-11,
-1200000,5.4174e-11,
-1300000,5.7319e-11,
-1400000,5.4961e-11,
-1500000,5.3474e-11,
-1600000,5.3365e-11,
-1700000,4.9962e-11,
-1800000,5.0424e-11,
-1900000,5.0096e-11,
-2000000,4.78e-11,
-2100000,4.6612e-11,
-2200000,4.6268e-11,
-2300000,4.4348e-11,
-2400000,4.4856e-11,
-2500000,4.4059e-11,
-2600000,4.3671e-11,
-2700000,4.2453e-11,
-2800000,4.3849e-11,
-2900000,4.3339e-11,
-3000000,4.1978e-11,
-3100000,4.0518e-11,
-3200000,3.7308e-11,
-3300000,3.6078e-11,
-3400000,3.4412e-11,
-3500000,3.5235e-11,
-3600000,3.4072e-11,
-3700000,3.3073e-11,
-3800000,3.2913e-11,
-3900000,3.196e-11,
-4000000,3.1273e-11,
-4100000,3.0178e-11,
-4200000,2.9692e-11,
-4300000,2.9397e-11,
-4400000,2.8471e-11,
-4500000,2.7895e-11,
-4600000,2.7459e-11,
-4700000,2.7127e-11,
-4800000,2.6209e-11,
-4900000,2.5856e-11,
-5000000,2.5486e-11,
-4950000,2.6262e-11,
-4850000,2.6547e-11,
-4750000,2.6651e-11,
-4650000,2.7598e-11,
-4550000,2.8272e-11,
-4450000,2.8482e-11,
-4350000,2.9295e-11,
-4250000,2.9178e-11,
-4150000,3.0773e-11,
-4050000,2.9912e-11,
-3950000,3.1184e-11,
-3850000,3.2537e-11,
-3750000,3.3342e-11,
-3650000,3.3631e-11,
-3550000,3.5618e-11,
-3450000,3.5408e-11,
-3350000,3.4963e-11,
-3250000,3.5985e-11,
-3150000,3.8015e-11,
-3050000,3.9919e-11,
-2950000,4.1668e-11,
-2850000,4.1281e-11,
-2750000,4.0597e-11,
-2650000,3.9783e-11,
-2550000,4.1656e-11,
-2450000,4.3058e-11,
-2350000,4.2633e-11,
-2250000,4.3822e-11,
-2150000,4.3541e-11,
-2050000,4.4302e-11,
-1950000,4.578e-11,
-1850000,4.6534e-11,
-1750000,4.6718e-11,
-1650000,4.7275e-11,
-1550000,4.8769e-11,
-1450000,4.9334e-11,
-1350000,5.1847e-11,
-1250000,5.4369e-11,
-1150000,5.0313e-11,
-1050000,4.9359e-11,
-950000,4.5023e-11,
-850000,4.311e-11,
-750000,4.5606e-11,
-650000,4.6809e-11,
-550000,4.4453e-11,
-450000,4.1779e-11,
-350000,4.325e-11,
-250000,4.4519e-11,
-150000,4.3404e-11,
-50000,4.4396e-11,
50000,4.6192e-11,
150000,4.7222e-11,
