General parameters:
Start time: 2023              8             18             17              2       7.678159
Finish time: 2023              8             18             17              8       5.087418
Dwell time (ms): 3000.000000
Source chamber pressure: 2.00e+3
Differential chamber pressure: 7.94e-07
Sample chamber pressure: 3.88e-08
Example position (nm): -4015694.527353,-49661.457499,-1000000.000000
Rotation angle (udeg): 47500140.000000
==========
Instrument status: 
0:Data Directory:/icon/data/2023_08_MoS2_5um_hbn_sub/
1:Sample:MoS2
2:Comments:no
3:PinholePlate:#C13
4:z_Zero:4200
5:Operator:djw77/nav31/kw570
==========
zscan inputs: 
z_sep:50000
z_range:200000 -5000000
data_path:/icon/data/2023_08_MoS2_5um_hbn_sub/
example_pos:-4015694.5274     -49661.457499          -1000000
N_dwell:200
sampling_period:15
make_plots:0
m1:0.98976
m2:-0.0073571
==========
Detector params:
Sampling period (ms): 15.000000
N dwell: 200.000000
Filament current (A): 1.540000
Filament emission (mA): 1.656306
Solenoid current (A): NaN
Solenoid shim current (A): NaN
Lens params:
0  685
1  300
2  125
3      -0.002
4       -0.01
5       0.012
6         0.8
7         2.1
8         2.8
9  3000
10  1450
11         0.85
12   0
==========
Data:
z(nm),I(A)
200000,3.4746e-11,
100000,3.4845e-11,
0,3.4267e-11,
-100000,3.5867e-11,
-200000,3.4591e-11,
-300000,3.514e-11,
-400000,3.726e-11,
-500000,3.754e-11,
-600000,3.7218e-11,
-700000,3.8009e-11,
-800000,4.0786e-11,
-900000,4.6064e-11,
-1000000,4.3594e-11,
-1100000,4.144e-11,
-1200000,4.1763e-11,
-1300000,4.1638e-11,
-1400000,4.201e-11,
-1500000,4.209e-11,
-1600000,4.2904e-11,
-1700000,4.2266e-11,
-1800000,4.1997e-11,
-1900000,4.206e-11,
-2000000,4.2159e-11,
-2100000,4.2324e-11,
-2200000,4.1556e-11,
-2300000,4.1262e-11,
-2400000,4.1415e-11,
-2500000,3.9536e-11,
-2600000,3.9626e-11,
-2700000,4.0075e-11,
-2800000,3.841e-11,
-2900000,3.7975e-11,
-3000000,3.6534e-11,
-3100000,3.7241e-11,
-3200000,3.7879e-11,
-3300000,3.6331e-11,
-3400000,3.6609e-11,
-3500000,3.3833e-11,
-3600000,3.3288e-11,
-3700000,3.2945e-11,
-3800000,3.2771e-11,
-3900000,3.244e-11,
-4000000,3.1048e-11,
-4100000,3.0126e-11,
-4200000,2.9632e-11,
-4300000,2.8669e-11,
-4400000,2.8857e-11,
-4500000,2.8242e-11,
-4600000,2.7266e-11,
-4700000,2.5991e-11,
-4800000,2.5937e-11,
-4900000,2.5435e-11,
-5000000,2.5505e-11,
-4950000,2.5631e-11,
-4850000,2.5367e-11,
-4750000,2.6217e-11,
-4650000,2.699e-11,
-4550000,2.7107e-11,
-4450000,2.7976e-11,
-4350000,2.8761e-11,
-4250000,2.8853e-11,
-4150000,2.9266e-11,
-4050000,2.9802e-11,
-3950000,3.0475e-11,
-3850000,3.1474e-11,
-3750000,3.1466e-11,
-3650000,3.273e-11,
-3550000,3.4069e-11,
-3450000,3.4998e-11,
-3350000,3.724e-11,
-3250000,3.7251e-11,
-3150000,3.6194e-11,
-3050000,3.6553e-11,
-2950000,3.8114e-11,
-2850000,3.7966e-11,
-2750000,3.9293e-11,
-2650000,3.9735e-11,
-2550000,3.9972e-11,
-2450000,4.0025e-11,
-2350000,4.1859e-11,
-2250000,4.2246e-11,
-2150000,4.1175e-11,
-2050000,4.1875e-11,
-1950000,4.1693e-11,
-1850000,4.1897e-11,
-1750000,4.3049e-11,
-1650000,4.3054e-11,
-1550000,4.2684e-11,
-1450000,4.2911e-11,
-1350000,4.3731e-11,
-1250000,4.0492e-11,
-1150000,4.1368e-11,
-1050000,4.1357e-11,
-950000,4.4105e-11,
-850000,4.4947e-11,
-750000,3.8716e-11,
-650000,3.7116e-11,
-550000,3.6617e-11,
-450000,3.7102e-11,
-350000,3.6012e-11,
-250000,3.531e-11,
-150000,3.5088e-11,
-50000,3.5292e-11,
50000,3.4835e-11,
150000,3.4787e-11,
