General parameters:
Start time: 2023              8             19             16             15      53.376651
Finish time: 2023              8             19             16             21        49.9836
Dwell time (ms): 3000.000000
Source chamber pressure: 2.00e+3
Differential chamber pressure: 7.97e-07
Sample chamber pressure: 3.79e-08
Example position (nm): -3230714.446894,292758.470004,-1000000.000000
Rotation angle (udeg): 104999915.000000
==========
Instrument status: 
0:Data Directory:/icon/data/2023_08_MoS2_5um_hbn_sub/
1:Sample:MoS2
2:Comments:no
3:PinholePlate:#C13
4:z_Zero:4200
5:Operator:djw77/nav31/kw570
==========
zscan inputs: 
z_sep:50000
z_range:200000 -5000000
data_path:/icon/data/2023_08_MoS2_5um_hbn_sub/
example_pos:-3230714.4469         292758.47          -1000000
N_dwell:200
sampling_period:15
make_plots:0
m1:0.98976
m2:-0.0073571
==========
Detector params:
Sampling period (ms): 15.000000
N dwell: 200.000000
Filament current (A): 1.540000
Filament emission (mA): 1.688796
Solenoid current (A): NaN
Solenoid shim current (A): NaN
Lens params:
0  685
1  300
2  125
3      -0.002
4       -0.01
5       0.012
6         0.8
7         2.1
8         2.8
9  3000
10  1450
11         0.85
12   0
==========
Data:
z(nm),I(A)
200000,4.4552e-11,
100000,4.5272e-11,
0,4.4442e-11,
-100000,4.526e-11,
-200000,4.6358e-11,
-300000,4.6318e-11,
-400000,4.8349e-11,
-500000,5.0939e-11,
-600000,5.9919e-11,
-700000,7.5948e-11,
-800000,1.0437e-10,
-900000,1.2473e-10,
-1000000,1.2504e-10,
-1100000,9.9798e-11,
-1200000,7.6223e-11,
-1300000,6.4008e-11,
-1400000,5.6763e-11,
-1500000,5.6094e-11,
-1600000,6.0096e-11,
-1700000,6.3456e-11,
-1800000,6.2474e-11,
-1900000,5.7271e-11,
-2000000,5.0982e-11,
-2100000,4.6038e-11,
-2200000,4.5328e-11,
-2300000,4.6892e-11,
-2400000,4.7476e-11,
-2500000,4.8074e-11,
-2600000,4.857e-11,
-2700000,4.7088e-11,
-2800000,4.6179e-11,
-2900000,4.3976e-11,
-3000000,4.4234e-11,
-3100000,4.7502e-11,
-3200000,4.9245e-11,
-3300000,5.2108e-11,
-3400000,5.5209e-11,
-3500000,5.6811e-11,
-3600000,5.4996e-11,
-3700000,4.7427e-11,
-3800000,4.2381e-11,
-3900000,3.6954e-11,
-4000000,3.4466e-11,
-4100000,3.3175e-11,
-4200000,3.1232e-11,
-4300000,3.0488e-11,
-4400000,3.0159e-11,
-4500000,2.9041e-11,
-4600000,2.904e-11,
-4700000,2.8201e-11,
-4800000,2.719e-11,
-4900000,2.6904e-11,
-5000000,2.6372e-11,
-4950000,2.6683e-11,
-4850000,2.7335e-11,
-4750000,2.7903e-11,
-4650000,2.8385e-11,
-4550000,2.9335e-11,
-4450000,2.9378e-11,
-4350000,3.016e-11,
-4250000,3.0324e-11,
-4150000,3.224e-11,
-4050000,3.3334e-11,
-3950000,3.5651e-11,
-3850000,3.8757e-11,
-3750000,4.5778e-11,
-3650000,5.2139e-11,
-3550000,5.6373e-11,
-3450000,5.7042e-11,
-3350000,5.3857e-11,
-3250000,5.3035e-11,
-3150000,4.8612e-11,
-3050000,4.6001e-11,
-2950000,4.422e-11,
-2850000,4.5492e-11,
-2750000,4.5138e-11,
-2650000,4.8585e-11,
-2550000,4.8413e-11,
-2450000,4.8987e-11,
-2350000,4.6424e-11,
-2250000,4.5457e-11,
-2150000,4.4395e-11,
-2050000,4.7232e-11,
-1950000,5.2453e-11,
-1850000,5.8888e-11,
-1750000,6.3839e-11,
-1650000,6.2551e-11,
-1550000,5.7203e-11,
-1450000,5.6065e-11,
-1350000,5.9011e-11,
-1250000,6.6675e-11,
-1150000,8.3608e-11,
-1050000,1.1172e-10,
-950000,1.2533e-10,
-850000,1.1812e-10,
-750000,8.8924e-11,
-650000,6.7463e-11,
-550000,5.5613e-11,
-450000,4.9356e-11,
-350000,4.7908e-11,
-250000,4.5821e-11,
-150000,4.586e-11,
-50000,4.5168e-11,
50000,4.4795e-11,
150000,4.4657e-11,
