General parameters:
Start time: 2023              8             21             22             21      39.862629
Finish time: 2023              8             21             22             27       35.93295
Dwell time (ms): 3000.000000
Source chamber pressure: 2.00e+3
Differential chamber pressure: 7.98e-07
Sample chamber pressure: 3.84e-08
Example position (nm): -3357160.450776,325684.731611,-1000000.000000
Rotation angle (udeg): 97499885.000000
==========
Instrument status: 
0:Data Directory:/icon/data/2023_08_MoS2_5um_hbn_sub/
1:Sample:MoS2
2:Comments:no
3:PinholePlate:#C13
4:z_Zero:4200
5:Operator:djw77/nav31/kw570
==========
zscan inputs: 
z_sep:50000
z_range:200000 -5000000
data_path:/icon/data/2023_08_MoS2_5um_hbn_sub/
example_pos:-3357160.4508      325684.73161          -1000000
N_dwell:200
sampling_period:15
make_plots:0
m1:0.98976
m2:-0.0073571
==========
Detector params:
Sampling period (ms): 15.000000
N dwell: 200.000000
Filament current (A): 1.540000
Filament emission (mA): 1.738386
Solenoid current (A): NaN
Solenoid shim current (A): NaN
Lens params:
0  685
1  300
2  125
3      -0.002
4       -0.01
5       0.012
6         0.8
7         2.1
8         2.8
9  3000
10  1450
11         0.85
12   0
==========
Data:
z(nm),I(A)
200000,5.1256e-11,
100000,5.0628e-11,
0,5.2045e-11,
-100000,5.4715e-11,
-200000,5.2913e-11,
-300000,5.2918e-11,
-400000,5.4177e-11,
-500000,5.8562e-11,
-600000,6.6521e-11,
-700000,8.2655e-11,
-800000,1.1142e-10,
-900000,1.3199e-10,
-1000000,1.4304e-10,
-1100000,1.2335e-10,
-1200000,9.6253e-11,
-1300000,7.887e-11,
-1400000,6.5551e-11,
-1500000,6.3466e-11,
-1600000,5.9621e-11,
-1700000,6.2236e-11,
-1800000,6.4898e-11,
-1900000,5.7767e-11,
-2000000,5.6019e-11,
-2100000,5.234e-11,
-2200000,5.4755e-11,
-2300000,5.6157e-11,
-2400000,5.9034e-11,
-2500000,6.093e-11,
-2600000,6.0423e-11,
-2700000,5.6073e-11,
-2800000,4.9877e-11,
-2900000,4.6339e-11,
-3000000,4.3834e-11,
-3100000,4.217e-11,
-3200000,4.167e-11,
-3300000,4.135e-11,
-3400000,4.1034e-11,
-3500000,3.9278e-11,
-3600000,3.7543e-11,
-3700000,3.6986e-11,
-3800000,3.5038e-11,
-3900000,3.6018e-11,
-4000000,3.5823e-11,
-4100000,3.5396e-11,
-4200000,3.5114e-11,
-4300000,3.5273e-11,
-4400000,3.3797e-11,
-4500000,3.3009e-11,
-4600000,3.1931e-11,
-4700000,3.1851e-11,
-4800000,3.1858e-11,
-4900000,3.0712e-11,
-5000000,3.066e-11,
-4950000,3.0693e-11,
-4850000,3.137e-11,
-4750000,3.212e-11,
-4650000,3.2056e-11,
-4550000,3.2795e-11,
-4450000,3.3108e-11,
-4350000,3.4194e-11,
-4250000,3.3938e-11,
-4150000,3.4317e-11,
-4050000,3.5372e-11,
-3950000,3.6227e-11,
-3850000,3.7131e-11,
-3750000,3.6498e-11,
-3650000,3.7848e-11,
-3550000,3.8998e-11,
-3450000,3.9588e-11,
-3350000,4.0495e-11,
-3250000,4.1202e-11,
-3150000,4.1147e-11,
-3050000,4.2238e-11,
-2950000,4.4299e-11,
-2850000,4.8655e-11,
-2750000,5.339e-11,
-2650000,5.7761e-11,
-2550000,6.1222e-11,
-2450000,6.1113e-11,
-2350000,5.7042e-11,
-2250000,5.4248e-11,
-2150000,5.3268e-11,
-2050000,5.5205e-11,
-1950000,5.7489e-11,
-1850000,5.9839e-11,
-1750000,6.4575e-11,
-1650000,6.1136e-11,
-1550000,6.6253e-11,
-1450000,6.6567e-11,
-1350000,7.5213e-11,
-1250000,8.9001e-11,
-1150000,1.053e-10,
-1050000,1.3246e-10,
-950000,1.3254e-10,
-850000,1.251e-10,
-750000,9.8896e-11,
-650000,7.619e-11,
-550000,6.6604e-11,
-450000,5.7908e-11,
-350000,5.2618e-11,
-250000,5.1505e-11,
-150000,5.2803e-11,
-50000,5.3673e-11,
50000,5.18e-11,
150000,5.13e-11,
