General parameters:
Start time: 2023              8             23             12             23       7.394448
Finish time: 2023              8             23             12             29        3.53058
Dwell time (ms): 3000.000000
Source chamber pressure: 2.00e+3
Differential chamber pressure: 7.73e-07
Sample chamber pressure: 3.79e-08
Example position (nm): -4026007.791313,-23078.449426,-1000000.000000
Rotation angle (udeg): 45000295.000000
==========
Instrument status: 
0:Data Directory:/icon/data/2023_08_MoS2_5um_hbn_sub/
1:Sample:MoS2
2:Comments:no
3:PinholePlate:#C13
4:z_Zero:4200
5:Operator:djw77/nav31/kw570
==========
zscan inputs: 
z_sep:50000
z_range:200000 -5000000
data_path:/icon/data/2023_08_MoS2_5um_hbn_sub/
example_pos:-4026007.7913     -23078.449426          -1000000
N_dwell:200
sampling_period:15
make_plots:1
m1:0.98976
m2:-0.0073571
==========
Detector params:
Sampling period (ms): 15.000000
N dwell: 200.000000
Filament current (A): 1.540000
Filament emission (mA): 1.788318
Solenoid current (A): NaN
Solenoid shim current (A): NaN
Lens params:
0  685
1  300
2  125
3      -0.002
4       -0.01
5       0.012
6         0.8
7         2.1
8         2.8
9  3000
10  1450
11         0.85
12   0
==========
Data:
z(nm),I(A)
200000,3.2632e-11,
100000,3.3256e-11,
0,3.3489e-11,
-100000,3.3615e-11,
-200000,3.2417e-11,
-300000,3.3103e-11,
-400000,3.4588e-11,
-500000,3.5243e-11,
-600000,3.5631e-11,
-700000,3.5494e-11,
-800000,3.6581e-11,
-900000,3.7517e-11,
-1000000,3.6776e-11,
-1100000,3.7906e-11,
-1200000,3.7648e-11,
-1300000,3.8341e-11,
-1400000,3.9151e-11,
-1500000,3.8674e-11,
-1600000,3.8493e-11,
-1700000,3.8978e-11,
-1800000,3.9003e-11,
-1900000,3.8909e-11,
-2000000,3.8717e-11,
-2100000,3.8588e-11,
-2200000,3.7991e-11,
-2300000,3.841e-11,
-2400000,3.7712e-11,
-2500000,3.707e-11,
-2600000,3.6945e-11,
-2700000,3.595e-11,
-2800000,3.612e-11,
-2900000,3.5365e-11,
-3000000,3.4827e-11,
-3100000,3.4778e-11,
-3200000,3.3767e-11,
-3300000,3.3568e-11,
-3400000,3.3599e-11,
-3500000,3.2237e-11,
-3600000,3.1171e-11,
-3700000,3.0898e-11,
-3800000,3.0969e-11,
-3900000,3.0348e-11,
-4000000,3.018e-11,
-4100000,2.9291e-11,
-4200000,2.7856e-11,
-4300000,2.8387e-11,
-4400000,2.6536e-11,
-4500000,2.6744e-11,
-4600000,2.6107e-11,
-4700000,2.6361e-11,
-4800000,2.5465e-11,
-4900000,2.5258e-11,
-5000000,2.4294e-11,
-4950000,2.4895e-11,
-4850000,2.5508e-11,
-4750000,2.5909e-11,
-4650000,2.6713e-11,
-4550000,2.7516e-11,
-4450000,2.7494e-11,
-4350000,2.7557e-11,
-4250000,2.8205e-11,
-4150000,2.8676e-11,
-4050000,2.9155e-11,
-3950000,3.0326e-11,
-3850000,3.0501e-11,
-3750000,3.0908e-11,
-3650000,3.0689e-11,
-3550000,3.203e-11,
-3450000,3.2731e-11,
-3350000,3.3238e-11,
-3250000,3.3919e-11,
-3150000,3.3744e-11,
-3050000,3.4785e-11,
-2950000,3.6152e-11,
-2850000,3.6345e-11,
-2750000,3.5816e-11,
-2650000,3.6204e-11,
-2550000,3.7989e-11,
-2450000,3.8042e-11,
-2350000,3.7485e-11,
-2250000,3.8078e-11,
-2150000,3.862e-11,
-2050000,3.83e-11,
-1950000,3.9226e-11,
-1850000,3.9954e-11,
-1750000,3.8865e-11,
-1650000,3.9527e-11,
-1550000,3.9023e-11,
-1450000,3.8805e-11,
-1350000,3.8012e-11,
-1250000,3.7887e-11,
-1150000,3.7566e-11,
-1050000,3.7408e-11,
-950000,3.7828e-11,
-850000,3.6653e-11,
-750000,3.603e-11,
-650000,3.5429e-11,
-550000,3.5604e-11,
-450000,3.4859e-11,
-350000,3.3741e-11,
-250000,3.3433e-11,
-150000,3.2831e-11,
-50000,3.3078e-11,
50000,3.3135e-11,
150000,3.3868e-11,
