General parameters:
Start time: 2023              8             19             15             39      37.514252
Finish time: 2023              8             19             15             45      34.988921
Dwell time (ms): 3000.000000
Source chamber pressure: 2.00e+3
Differential chamber pressure: 7.96e-07
Sample chamber pressure: 3.84e-08
Example position (nm): -3469000.000000,281000.000000,-1000000.000000
Rotation angle (udeg): 90000060.000000
==========
Instrument status: 
0:Data Directory:/icon/data/2023_08_MoS2_5um_hbn_sub/
1:Sample:MoS2
2:Comments:no
3:PinholePlate:#C13
4:z_Zero:4200
5:Operator:djw77/nav31/kw570
==========
zscan inputs: 
z_sep:50000
z_range:200000 -5000000
data_path:/icon/data/2023_08_MoS2_5um_hbn_sub/
example_pos:-3469000   281000 -1000000
N_dwell:200
sampling_period:15
make_plots:0
m1:0.98976
m2:-0.0073571
==========
Detector params:
Sampling period (ms): 15.000000
N dwell: 200.000000
Filament current (A): 1.540000
Filament emission (mA): 1.684692
Solenoid current (A): NaN
Solenoid shim current (A): NaN
Lens params:
0  685
1  300
2  125
3      -0.002
4       -0.01
5       0.012
6         0.8
7         2.1
8         2.8
9  3000
10  1450
11         0.85
12   0
==========
Data:
z(nm),I(A)
200000,6.1292e-11,
100000,5.5319e-11,
0,5.3621e-11,
-100000,5.3753e-11,
-200000,5.105e-11,
-300000,5.0117e-11,
-400000,4.8111e-11,
-500000,4.9306e-11,
-600000,5.2313e-11,
-700000,6.4747e-11,
-800000,9.5182e-11,
-900000,1.2852e-10,
-1000000,1.3866e-10,
-1100000,1.1768e-10,
-1200000,8.0434e-11,
-1300000,6.0095e-11,
-1400000,5.3437e-11,
-1500000,4.9899e-11,
-1600000,4.8295e-11,
-1700000,4.6654e-11,
-1800000,4.5974e-11,
-1900000,4.4436e-11,
-2000000,4.5452e-11,
-2100000,4.6502e-11,
-2200000,4.864e-11,
-2300000,5.3559e-11,
-2400000,6.0348e-11,
-2500000,6.332e-11,
-2600000,6.339e-11,
-2700000,5.6786e-11,
-2800000,4.9013e-11,
-2900000,4.4232e-11,
-3000000,3.9847e-11,
-3100000,3.9388e-11,
-3200000,3.8422e-11,
-3300000,3.9706e-11,
-3400000,4.056e-11,
-3500000,4.1242e-11,
-3600000,3.9789e-11,
-3700000,3.8651e-11,
-3800000,3.6536e-11,
-3900000,3.3498e-11,
-4000000,3.1443e-11,
-4100000,3.1677e-11,
-4200000,3.0082e-11,
-4300000,2.8927e-11,
-4400000,2.8928e-11,
-4500000,2.7293e-11,
-4600000,2.6757e-11,
-4700000,2.6076e-11,
-4800000,2.536e-11,
-4900000,2.5063e-11,
-5000000,2.4163e-11,
-4950000,2.4258e-11,
-4850000,2.4815e-11,
-4750000,2.604e-11,
-4650000,2.5741e-11,
-4550000,2.7379e-11,
-4450000,2.7425e-11,
-4350000,2.7538e-11,
-4250000,2.9188e-11,
-4150000,2.9666e-11,
-4050000,3.0577e-11,
-3950000,3.2691e-11,
-3850000,3.5657e-11,
-3750000,3.7239e-11,
-3650000,4.056e-11,
-3550000,4.1604e-11,
-3450000,4.169e-11,
-3350000,3.9558e-11,
-3250000,3.8596e-11,
-3150000,3.8244e-11,
-3050000,3.8806e-11,
-2950000,4.0636e-11,
-2850000,4.4709e-11,
-2750000,5.2385e-11,
-2650000,6.0324e-11,
-2550000,6.4085e-11,
-2450000,6.254e-11,
-2350000,5.7752e-11,
-2250000,4.9429e-11,
-2150000,4.8159e-11,
-2050000,4.5689e-11,
-1950000,4.5676e-11,
-1850000,4.6822e-11,
-1750000,4.6114e-11,
-1650000,4.6527e-11,
-1550000,4.9456e-11,
-1450000,5.2341e-11,
-1350000,5.8278e-11,
-1250000,6.9176e-11,
-1150000,9.6311e-11,
-1050000,1.3076e-10,
-950000,1.4069e-10,
-850000,1.2287e-10,
-750000,8.2595e-11,
-650000,5.9958e-11,
-550000,5.1035e-11,
-450000,5.0559e-11,
-350000,4.9668e-11,
-250000,4.9793e-11,
-150000,5.2696e-11,
-50000,5.4128e-11,
50000,5.4536e-11,
150000,5.997e-11,
