General parameters:
Start time: 2023              8             29              2             22      36.441531
Finish time: 2023              8             29              2             29      39.561537
Dwell time (ms): 3000.000000
Source chamber pressure: 2.00e+3
Differential chamber pressure: 6.07e-07
Sample chamber pressure: 3.57e-08
Example position (nm): -4001401.380953,45339.090550,-1000000.000000
Rotation angle (udeg): 52499985.000000
==========
Instrument status: 
0:Data Directory:/icon/data/2023_08_MoS2_5um_hbn_sub/
1:Sample:MoS2
2:Comments:no
3:PinholePlate:#C13
4:z_Zero:4200
5:Operator:djw77/nav31/kw570
==========
zscan inputs: 
z_sep:50000
z_range:200000 -6000000
data_path:/icon/data/2023_08_MoS2_5um_hbn_sub/
example_pos:-4001401.381       45339.09055          -1000000
N_dwell:200
sampling_period:15
make_plots:1
m1:0.98976
m2:-0.0073571
==========
Detector params:
Sampling period (ms): 15.000000
N dwell: 200.000000
Filament current (A): 1.540000
Filament emission (mA): 1.919988
Solenoid current (A): NaN
Solenoid shim current (A): NaN
Lens params:
0  685
1  300
2  125
3      -0.002
4       -0.01
5       0.012
6         0.8
7         2.1
8         2.8
9  3000
10  1450
11         0.85
12   0
==========
Data:
z(nm),I(A)
200000,5.3142e-11,
100000,5.3052e-11,
0,5.2168e-11,
-100000,5.1751e-11,
-200000,5.3358e-11,
-300000,5.2785e-11,
-400000,5.232e-11,
-500000,5.3489e-11,
-600000,5.4419e-11,
-700000,5.5896e-11,
-800000,5.6694e-11,
-900000,5.7215e-11,
-1000000,5.7499e-11,
-1100000,5.7798e-11,
-1200000,5.7616e-11,
-1300000,5.8756e-11,
-1400000,5.8622e-11,
-1500000,5.9538e-11,
-1600000,5.9285e-11,
-1700000,6.0449e-11,
-1800000,6.0921e-11,
-1900000,5.943e-11,
-2000000,5.923e-11,
-2100000,6.0779e-11,
-2200000,5.9678e-11,
-2300000,5.9428e-11,
-2400000,5.9958e-11,
-2500000,5.8184e-11,
-2600000,5.8424e-11,
-2700000,5.6604e-11,
-2800000,5.6822e-11,
-2900000,5.58e-11,
-3000000,5.5908e-11,
-3100000,5.6218e-11,
-3200000,5.4542e-11,
-3300000,5.3017e-11,
-3400000,5.2424e-11,
-3500000,5.0541e-11,
-3600000,5.1465e-11,
-3700000,4.9031e-11,
-3800000,4.8782e-11,
-3900000,4.7584e-11,
-4000000,4.6272e-11,
-4100000,4.5217e-11,
-4200000,4.5461e-11,
-4300000,4.4338e-11,
-4400000,4.3714e-11,
-4500000,4.2777e-11,
-4600000,4.21e-11,
-4700000,4.0975e-11,
-4800000,4.1112e-11,
-4900000,4.1059e-11,
-5000000,3.8937e-11,
-5100000,3.8739e-11,
-5200000,3.8522e-11,
-5300000,3.7609e-11,
-5400000,3.773e-11,
-5500000,3.7393e-11,
-5600000,3.5711e-11,
-5700000,3.5404e-11,
-5800000,3.5803e-11,
-5900000,3.5222e-11,
-6000000,3.5031e-11,
-5950000,3.3533e-11,
-5850000,3.5273e-11,
-5750000,3.4008e-11,
-5650000,3.64e-11,
-5550000,3.6193e-11,
-5450000,3.6448e-11,
-5350000,3.7074e-11,
-5250000,3.9819e-11,
-5150000,3.8775e-11,
-5050000,3.9338e-11,
-4950000,3.9883e-11,
-4850000,4.0209e-11,
-4750000,4.0979e-11,
-4650000,4.1573e-11,
-4550000,4.1771e-11,
-4450000,4.2397e-11,
-4350000,4.3214e-11,
-4250000,4.4211e-11,
-4150000,4.4493e-11,
-4050000,4.5529e-11,
-3950000,4.6592e-11,
-3850000,4.8278e-11,
-3750000,4.8606e-11,
-3650000,4.89e-11,
-3550000,5.1209e-11,
-3450000,5.0927e-11,
-3350000,5.3151e-11,
-3250000,5.2904e-11,
-3150000,5.4052e-11,
-3050000,5.4815e-11,
-2950000,5.615e-11,
-2850000,5.7105e-11,
-2750000,5.814e-11,
-2650000,5.882e-11,
-2550000,5.8588e-11,
-2450000,5.9091e-11,
-2350000,6.1295e-11,
-2250000,6.0435e-11,
-2150000,6.1075e-11,
-2050000,6.125e-11,
-1950000,6.0978e-11,
-1850000,6.0534e-11,
-1750000,6.1489e-11,
-1650000,6.0532e-11,
-1550000,6.0578e-11,
-1450000,5.997e-11,
-1350000,5.9819e-11,
-1250000,5.7907e-11,
-1150000,5.9648e-11,
-1050000,5.7801e-11,
-950000,5.7997e-11,
-850000,5.8106e-11,
-750000,5.5903e-11,
-650000,5.5737e-11,
-550000,5.4039e-11,
-450000,5.4454e-11,
-350000,5.2485e-11,
-250000,5.2733e-11,
-150000,5.2483e-11,
-50000,5.2152e-11,
50000,5.1914e-11,
150000,5.1393e-11,
