General parameters:
Start time: 2023              8             22              0             51      29.423081
Finish time: 2023              8             22              0             57      27.475561
Dwell time (ms): 3000.000000
Source chamber pressure: 2.00e+3
Differential chamber pressure: 7.98e-07
Sample chamber pressure: 3.79e-08
Example position (nm): -3841582.559877,161305.911762,-1000000.000000
Rotation angle (udeg): 62499735.000000
==========
Instrument status: 
0:Data Directory:/icon/data/2023_08_MoS2_5um_hbn_sub/
1:Sample:MoS2
2:Comments:no
3:PinholePlate:#C13
4:z_Zero:4200
5:Operator:djw77/nav31/kw570
==========
zscan inputs: 
z_sep:50000
z_range:200000 -5000000
data_path:/icon/data/2023_08_MoS2_5um_hbn_sub/
example_pos:-3841582.5599      161305.91176          -1000000
N_dwell:200
sampling_period:15
make_plots:0
m1:0.98976
m2:-0.0073571
==========
Detector params:
Sampling period (ms): 15.000000
N dwell: 200.000000
Filament current (A): 1.540000
Filament emission (mA): 1.748304
Solenoid current (A): NaN
Solenoid shim current (A): NaN
Lens params:
0  685
1  300
2  125
3      -0.002
4       -0.01
5       0.012
6         0.8
7         2.1
8         2.8
9  3000
10  1450
11         0.85
12   0
==========
Data:
z(nm),I(A)
200000,4.0425e-11,
100000,3.9822e-11,
0,4.071e-11,
-100000,3.8505e-11,
-200000,3.9976e-11,
-300000,3.8932e-11,
-400000,4.0489e-11,
-500000,4.0664e-11,
-600000,4.1808e-11,
-700000,4.1466e-11,
-800000,4.2091e-11,
-900000,4.4038e-11,
-1000000,4.4137e-11,
-1100000,4.4223e-11,
-1200000,4.4297e-11,
-1300000,4.5876e-11,
-1400000,4.5501e-11,
-1500000,4.5477e-11,
-1600000,4.5375e-11,
-1700000,4.5414e-11,
-1800000,4.5314e-11,
-1900000,4.6397e-11,
-2000000,4.5151e-11,
-2100000,4.5798e-11,
-2200000,4.5429e-11,
-2300000,4.4858e-11,
-2400000,4.4111e-11,
-2500000,4.3761e-11,
-2600000,4.3969e-11,
-2700000,4.3127e-11,
-2800000,4.2784e-11,
-2900000,4.1429e-11,
-3000000,4.1604e-11,
-3100000,4.0648e-11,
-3200000,3.9796e-11,
-3300000,3.9487e-11,
-3400000,3.8788e-11,
-3500000,3.7908e-11,
-3600000,3.758e-11,
-3700000,3.6969e-11,
-3800000,3.6279e-11,
-3900000,3.6226e-11,
-4000000,3.4959e-11,
-4100000,3.4232e-11,
-4200000,3.4574e-11,
-4300000,3.3583e-11,
-4400000,3.276e-11,
-4500000,3.1326e-11,
-4600000,3.1629e-11,
-4700000,3.0166e-11,
-4800000,3.099e-11,
-4900000,2.9376e-11,
-5000000,2.995e-11,
-4950000,2.9989e-11,
-4850000,2.9539e-11,
-4750000,3.0529e-11,
-4650000,3.1985e-11,
-4550000,3.189e-11,
-4450000,3.1892e-11,
-4350000,3.2229e-11,
-4250000,3.3322e-11,
-4150000,3.4485e-11,
-4050000,3.4023e-11,
-3950000,3.5691e-11,
-3850000,3.6562e-11,
-3750000,3.7268e-11,
-3650000,3.7336e-11,
-3550000,3.7906e-11,
-3450000,3.7776e-11,
-3350000,4.0212e-11,
-3250000,3.9967e-11,
-3150000,3.9665e-11,
-3050000,4.1858e-11,
-2950000,4.1322e-11,
-2850000,4.2481e-11,
-2750000,4.3801e-11,
-2650000,4.4302e-11,
-2550000,4.4154e-11,
-2450000,4.4466e-11,
-2350000,4.5422e-11,
-2250000,4.6002e-11,
-2150000,4.6279e-11,
-2050000,4.608e-11,
-1950000,4.5223e-11,
-1850000,4.5534e-11,
-1750000,4.6366e-11,
-1650000,4.5432e-11,
-1550000,4.5657e-11,
-1450000,4.5998e-11,
-1350000,4.4633e-11,
-1250000,4.4375e-11,
-1150000,4.3937e-11,
-1050000,4.4474e-11,
-950000,4.3652e-11,
-850000,4.3117e-11,
-750000,4.3507e-11,
-650000,4.2348e-11,
-550000,4.1134e-11,
-450000,4.0726e-11,
-350000,4.0414e-11,
-250000,4.0586e-11,
-150000,3.9144e-11,
-50000,3.9878e-11,
50000,3.9738e-11,
150000,4.013e-11,
