General parameters:
Start time: 2023              8             15             10             59      35.818034
Finish time: 2023              8             15             11             14      46.925055
Dwell time (ms): 3750.000000
Source chamber pressure: 2.00e+3
Differential chamber pressure: 7.95e-07
Sample chamber pressure: 4.11e-08
Example position (nm): -3512000.000000,279000.000000,-1000000.000000
Rotation angle (udeg): 90000075.000000
==========
Instrument status: 
0:Data Directory:/icon/data/2023_08_MoS2_5um_hbn_sub/
1:Sample:MoS2
2:Comments:no
3:PinholePlate:#C13
4:z_Zero:4200
5:Operator:djw77/nav31/kw570
==========
zscan inputs: 
z_sep:30000
z_range:500000 -6000000
data_path:/icon/data/2023_08_MoS2_5um_hbn_sub/
example_pos:-3512000   279000 -1000000
N_dwell:250
sampling_period:15
make_plots:1
m1:0.98534
m2:-0.0012405
==========
Detector params:
Sampling period (ms): 15.000000
N dwell: 250.000000
Filament current (A): 1.540000
Filament emission (mA): 1.628946
Solenoid current (A): NaN
Solenoid shim current (A): NaN
Lens params:
0  685
1  300
2  125
3      -0.002
4       -0.01
5       0.012
6         0.8
7         2.1
8         2.8
9  3000
10  1450
11         0.85
12   0
==========
Data:
z(nm),I(A)
500000,9.4352e-11,
440000,9.3308e-11,
380000,9.4475e-11,
320000,9.595e-11,
260000,9.4725e-11,
200000,9.6315e-11,
140000,9.7276e-11,
80000,9.6956e-11,
20000,9.6826e-11,
-40000,9.6556e-11,
-100000,9.638e-11,
-160000,9.6539e-11,
-220000,9.6765e-11,
-280000,9.8132e-11,
-340000,9.7655e-11,
-400000,9.9188e-11,
-460000,9.9143e-11,
-520000,1.0039e-10,
-580000,1.0125e-10,
-640000,1.0262e-10,
-700000,1.0265e-10,
-760000,1.0457e-10,
-820000,1.0711e-10,
-880000,1.076e-10,
-940000,1.0961e-10,
-1000000,1.0826e-10,
-1060000,1.0774e-10,
-1120000,1.061e-10,
-1180000,1.0416e-10,
-1240000,1.0489e-10,
-1300000,1.0449e-10,
-1360000,1.0484e-10,
-1420000,1.0243e-10,
-1480000,1.0291e-10,
-1540000,1.0342e-10,
-1600000,1.0469e-10,
-1660000,1.0351e-10,
-1720000,1.0339e-10,
-1780000,1.0308e-10,
-1840000,1.0376e-10,
-1900000,1.0376e-10,
-1960000,1.0357e-10,
-2020000,1.0305e-10,
-2080000,1.0151e-10,
-2140000,1.0372e-10,
-2200000,1.0136e-10,
-2260000,1.0255e-10,
-2320000,1.0112e-10,
-2380000,1.0219e-10,
-2440000,1.0008e-10,
-2500000,1.0033e-10,
-2560000,9.8679e-11,
-2620000,9.7274e-11,
-2680000,9.7515e-11,
-2740000,9.6379e-11,
-2800000,9.5221e-11,
-2860000,9.4004e-11,
-2920000,9.3979e-11,
-2980000,9.2789e-11,
-3040000,9.15e-11,
-3100000,9.1032e-11,
-3160000,9.1282e-11,
-3220000,9.0462e-11,
-3280000,8.8529e-11,
-3340000,8.854e-11,
-3400000,8.726e-11,
-3460000,8.7327e-11,
-3520000,8.6565e-11,
-3580000,8.5998e-11,
-3640000,8.4626e-11,
-3700000,8.4277e-11,
-3760000,8.2624e-11,
-3820000,8.1872e-11,
-3880000,8.1851e-11,
-3940000,7.9625e-11,
-4000000,8.0109e-11,
-4060000,7.9907e-11,
-4120000,7.8425e-11,
-4180000,7.7767e-11,
-4240000,7.6944e-11,
-4300000,7.6384e-11,
-4360000,7.7046e-11,
-4420000,7.5247e-11,
-4480000,7.6103e-11,
-4540000,7.5658e-11,
-4600000,7.438e-11,
-4660000,7.1711e-11,
-4720000,7.2623e-11,
-4780000,7.2246e-11,
-4840000,7.1326e-11,
-4900000,7.0116e-11,
-4960000,7.1034e-11,
-5020000,6.9854e-11,
-5080000,6.8882e-11,
-5140000,6.7821e-11,
-5200000,6.748e-11,
-5260000,6.6396e-11,
-5320000,6.5854e-11,
-5380000,6.562e-11,
-5440000,6.5504e-11,
-5500000,6.5801e-11,
-5560000,6.5022e-11,
-5620000,6.4699e-11,
-5680000,6.3801e-11,
-5740000,6.389e-11,
-5800000,6.2992e-11,
-5860000,6.2417e-11,
-5920000,6.336e-11,
-5980000,6.24e-11,
-5950000,6.2224e-11,
-5890000,6.3477e-11,
-5830000,6.312e-11,
-5770000,6.3362e-11,
-5710000,6.3957e-11,
-5650000,6.4492e-11,
-5590000,6.4867e-11,
-5530000,6.554e-11,
-5470000,6.5184e-11,
-5410000,6.6586e-11,
-5350000,6.65e-11,
-5290000,6.6416e-11,
-5230000,6.7651e-11,
-5170000,6.8405e-11,
-5110000,6.8524e-11,
-5050000,6.8541e-11,
-4990000,6.98e-11,
-4930000,6.921e-11,
-4870000,7.0134e-11,
-4810000,7.1631e-11,
-4750000,7.128e-11,
-4690000,7.1207e-11,
-4630000,7.1753e-11,
-4570000,7.3574e-11,
-4510000,7.3508e-11,
-4450000,7.4143e-11,
-4390000,7.5478e-11,
-4330000,7.5492e-11,
-4270000,7.6384e-11,
-4210000,7.7098e-11,
-4150000,7.831e-11,
-4090000,7.9331e-11,
-4030000,8.0825e-11,
-3970000,7.9872e-11,
-3910000,8.0567e-11,
-3850000,8.1564e-11,
-3790000,8.1658e-11,
-3730000,8.1987e-11,
-3670000,8.3471e-11,
-3610000,8.4576e-11,
-3550000,8.5314e-11,
-3490000,8.5962e-11,
-3430000,8.7356e-11,
-3370000,8.6845e-11,
-3310000,8.8196e-11,
-3250000,9.0203e-11,
-3190000,8.8445e-11,
-3130000,9.0353e-11,
-3070000,9.2427e-11,
-3010000,9.3144e-11,
-2950000,9.3316e-11,
-2890000,9.3506e-11,
-2830000,9.5402e-11,
-2770000,9.6307e-11,
-2710000,9.6376e-11,
-2650000,9.7297e-11,
-2590000,9.9127e-11,
-2530000,9.9191e-11,
-2470000,1.0003e-10,
-2410000,9.8167e-11,
-2350000,1.0119e-10,
-2290000,1.0032e-10,
-2230000,1.0121e-10,
-2170000,1.0137e-10,
-2110000,1.0196e-10,
-2050000,1.0181e-10,
-1990000,1.0245e-10,
-1930000,1.0291e-10,
-1870000,1.0312e-10,
-1810000,1.0369e-10,
-1750000,1.04e-10,
-1690000,1.0434e-10,
-1630000,1.0235e-10,
-1570000,1.0343e-10,
-1510000,1.0242e-10,
-1450000,1.0308e-10,
-1390000,1.0221e-10,
-1330000,1.0435e-10,
-1270000,1.0326e-10,
-1210000,1.0411e-10,
-1150000,1.0575e-10,
-1090000,1.0642e-10,
-1030000,1.0733e-10,
-970000,1.0771e-10,
-910000,1.0739e-10,
-850000,1.061e-10,
-790000,1.0471e-10,
-730000,1.021e-10,
-670000,1.0226e-10,
-610000,1.0138e-10,
-550000,9.9788e-11,
-490000,9.968e-11,
-430000,9.9088e-11,
-370000,9.8296e-11,
-310000,9.6937e-11,
-250000,9.7512e-11,
-190000,9.6388e-11,
-130000,9.518e-11,
-70000,9.5586e-11,
-10000,9.5653e-11,
50000,9.5886e-11,
110000,9.5468e-11,
170000,9.6286e-11,
230000,9.481e-11,
290000,9.3831e-11,
350000,9.4683e-11,
410000,9.462e-11,
470000,9.2686e-11,
