General parameters:
Start time: 2023              8             22             12             36      37.715959
Finish time: 2023              8             22             12             42      32.183022
Dwell time (ms): 3000.000000
Source chamber pressure: 2.00e+3
Differential chamber pressure: 7.98e-07
Sample chamber pressure: 3.83e-08
Example position (nm): -3454237.992455,257704.979726,-1000000.000000
Rotation angle (udeg): 87499885.000000
==========
Instrument status: 
0:Data Directory:/icon/data/2023_08_MoS2_5um_hbn_sub/
1:Sample:MoS2
2:Comments:no
3:PinholePlate:#C13
4:z_Zero:4200
5:Operator:djw77/nav31/kw570
==========
zscan inputs: 
z_sep:50000
z_range:200000 -5000000
data_path:/icon/data/2023_08_MoS2_5um_hbn_sub/
example_pos:-3454237.9925      257704.97973          -1000000
N_dwell:200
sampling_period:15
make_plots:0
m1:0.98976
m2:-0.0073571
==========
Detector params:
Sampling period (ms): 15.000000
N dwell: 200.000000
Filament current (A): 1.540000
Filament emission (mA): 1.739412
Solenoid current (A): NaN
Solenoid shim current (A): NaN
Lens params:
0  685
1  300
2  125
3      -0.002
4       -0.01
5       0.012
6         0.8
7         2.1
8         2.8
9  3000
10  1450
11         0.85
12   0
==========
Data:
z(nm),I(A)
200000,7.9509e-11,
100000,7.9571e-11,
0,7.3199e-11,
-100000,6.7843e-11,
-200000,6.3973e-11,
-300000,5.9123e-11,
-400000,5.5812e-11,
-500000,5.4601e-11,
-600000,6.0278e-11,
-700000,7.4603e-11,
-800000,1.0446e-10,
-900000,1.4767e-10,
-1000000,1.5972e-10,
-1100000,1.4278e-10,
-1200000,1.0118e-10,
-1300000,7.7321e-11,
-1400000,6.4699e-11,
-1500000,5.8658e-11,
-1600000,5.4039e-11,
-1700000,5.3193e-11,
-1800000,5.3003e-11,
-1900000,5.1436e-11,
-2000000,4.998e-11,
-2100000,5.1332e-11,
-2200000,5.3391e-11,
-2300000,5.5395e-11,
-2400000,6.1091e-11,
-2500000,6.2851e-11,
-2600000,6.0184e-11,
-2700000,5.5598e-11,
-2800000,4.929e-11,
-2900000,4.5052e-11,
-3000000,4.2819e-11,
-3100000,4.2356e-11,
-3200000,4.4577e-11,
-3300000,4.8525e-11,
-3400000,5.1462e-11,
-3500000,5.2111e-11,
-3600000,5.2234e-11,
-3700000,4.9027e-11,
-3800000,4.4382e-11,
-3900000,3.9352e-11,
-4000000,3.5913e-11,
-4100000,3.316e-11,
-4200000,3.1934e-11,
-4300000,3.0079e-11,
-4400000,2.9506e-11,
-4500000,2.9747e-11,
-4600000,2.9127e-11,
-4700000,2.8225e-11,
-4800000,2.8025e-11,
-4900000,2.7446e-11,
-5000000,2.657e-11,
-4950000,2.7801e-11,
-4850000,2.763e-11,
-4750000,2.7906e-11,
-4650000,2.7978e-11,
-4550000,2.9161e-11,
-4450000,3.0581e-11,
-4350000,2.9605e-11,
-4250000,3.0238e-11,
-4150000,3.1397e-11,
-4050000,3.3881e-11,
-3950000,3.6647e-11,
-3850000,4.1615e-11,
-3750000,4.6256e-11,
-3650000,5.0627e-11,
-3550000,5.2207e-11,
-3450000,5.3393e-11,
-3350000,4.9898e-11,
-3250000,4.6158e-11,
-3150000,4.4331e-11,
-3050000,4.2499e-11,
-2950000,4.4368e-11,
-2850000,4.7079e-11,
-2750000,5.1651e-11,
-2650000,5.7335e-11,
-2550000,6.1675e-11,
-2450000,6.2261e-11,
-2350000,5.8012e-11,
-2250000,5.3939e-11,
-2150000,5.2683e-11,
-2050000,5.0482e-11,
-1950000,5.0554e-11,
-1850000,5.1071e-11,
-1750000,5.1592e-11,
-1650000,5.3717e-11,
-1550000,5.6082e-11,
-1450000,6.0512e-11,
-1350000,6.8498e-11,
-1250000,8.5702e-11,
-1150000,1.1716e-10,
-1050000,1.5628e-10,
-950000,1.6197e-10,
-850000,1.3939e-10,
-750000,8.8841e-11,
-650000,6.713e-11,
-550000,5.7602e-11,
-450000,5.4656e-11,
-350000,5.8005e-11,
-250000,6.1976e-11,
-150000,6.597e-11,
-50000,6.9516e-11,
50000,7.5677e-11,
150000,8.5053e-11,
