General parameters:
Start time: 2023              8             21             14             18      37.980502
Finish time: 2023              8             21             14             24      32.855914
Dwell time (ms): 3000.000000
Source chamber pressure: 2.00e+3
Differential chamber pressure: 7.97e-07
Sample chamber pressure: 3.84e-08
Example position (nm): -3833344.057625,149811.257324,-1000000.000000
Rotation angle (udeg): 62499445.000000
==========
Instrument status: 
0:Data Directory:/icon/data/2023_08_MoS2_5um_hbn_sub/
1:Sample:MoS2
2:Comments:no
3:PinholePlate:#C13
4:z_Zero:4200
5:Operator:djw77/nav31/kw570
==========
zscan inputs: 
z_sep:50000
z_range:200000 -5000000
data_path:/icon/data/2023_08_MoS2_5um_hbn_sub/
example_pos:-3833344.0576      149811.25732          -1000000
N_dwell:200
sampling_period:15
make_plots:0
m1:0.98976
m2:-0.0073571
==========
Detector params:
Sampling period (ms): 15.000000
N dwell: 200.000000
Filament current (A): 1.540000
Filament emission (mA): 1.744200
Solenoid current (A): NaN
Solenoid shim current (A): NaN
Lens params:
0  685
1  300
2  125
3      -0.002
4       -0.01
5       0.012
6         0.8
7         2.1
8         2.8
9  3000
10  1450
11         0.85
12   0
==========
Data:
z(nm),I(A)
200000,4.1262e-11,
100000,4.1946e-11,
0,4.1083e-11,
-100000,4.0669e-11,
-200000,4.072e-11,
-300000,4.2037e-11,
-400000,4.2989e-11,
-500000,4.2602e-11,
-600000,4.3834e-11,
-700000,4.3352e-11,
-800000,4.4323e-11,
-900000,4.5239e-11,
-1000000,4.5479e-11,
-1100000,4.5311e-11,
-1200000,4.5735e-11,
-1300000,4.7108e-11,
-1400000,4.6738e-11,
-1500000,4.7844e-11,
-1600000,4.7764e-11,
-1700000,4.7962e-11,
-1800000,4.7793e-11,
-1900000,4.7062e-11,
-2000000,4.7006e-11,
-2100000,4.6726e-11,
-2200000,4.7721e-11,
-2300000,4.6447e-11,
-2400000,4.5981e-11,
-2500000,4.5199e-11,
-2600000,4.5637e-11,
-2700000,4.4334e-11,
-2800000,4.484e-11,
-2900000,4.4442e-11,
-3000000,4.3159e-11,
-3100000,4.262e-11,
-3200000,4.1478e-11,
-3300000,4.0602e-11,
-3400000,4.1001e-11,
-3500000,3.9161e-11,
-3600000,3.941e-11,
-3700000,3.8295e-11,
-3800000,3.7684e-11,
-3900000,3.7043e-11,
-4000000,3.523e-11,
-4100000,3.4932e-11,
-4200000,3.5209e-11,
-4300000,3.3473e-11,
-4400000,3.4557e-11,
-4500000,3.3142e-11,
-4600000,3.2235e-11,
-4700000,3.1742e-11,
-4800000,3.1451e-11,
-4900000,3.1237e-11,
-5000000,2.9979e-11,
-4950000,3.0435e-11,
-4850000,3.1081e-11,
-4750000,3.2e-11,
-4650000,3.2371e-11,
-4550000,3.2956e-11,
-4450000,3.4187e-11,
-4350000,3.4151e-11,
-4250000,3.531e-11,
-4150000,3.4147e-11,
-4050000,3.5705e-11,
-3950000,3.639e-11,
-3850000,3.8753e-11,
-3750000,3.8157e-11,
-3650000,3.864e-11,
-3550000,3.9352e-11,
-3450000,3.8963e-11,
-3350000,4.0657e-11,
-3250000,4.0573e-11,
-3150000,4.2885e-11,
-3050000,4.3226e-11,
-2950000,4.3031e-11,
-2850000,4.4349e-11,
-2750000,4.4613e-11,
-2650000,4.4418e-11,
-2550000,4.5537e-11,
-2450000,4.5221e-11,
-2350000,4.7014e-11,
-2250000,4.708e-11,
-2150000,4.7532e-11,
-2050000,4.6763e-11,
-1950000,4.8421e-11,
-1850000,4.7552e-11,
-1750000,4.7639e-11,
-1650000,4.7775e-11,
-1550000,4.8498e-11,
-1450000,4.8178e-11,
-1350000,4.765e-11,
-1250000,4.5698e-11,
-1150000,4.6384e-11,
-1050000,4.5871e-11,
-950000,4.5921e-11,
-850000,4.4671e-11,
-750000,4.3404e-11,
-650000,4.1967e-11,
-550000,4.3622e-11,
-450000,4.2598e-11,
-350000,4.1019e-11,
-250000,4.1648e-11,
-150000,4.1129e-11,
-50000,4.0455e-11,
50000,4.0681e-11,
150000,4.1839e-11,
