General parameters:
Start time: 2023              8             22             14             18       38.43171
Finish time: 2023              8             22             14             24      32.615959
Dwell time (ms): 3000.000000
Source chamber pressure: 2.00e+3
Differential chamber pressure: 7.98e-07
Sample chamber pressure: 3.79e-08
Example position (nm): -2895298.400685,130205.796069,-1000000.000000
Rotation angle (udeg): 130000120.000000
==========
Instrument status: 
0:Data Directory:/icon/data/2023_08_MoS2_5um_hbn_sub/
1:Sample:MoS2
2:Comments:no
3:PinholePlate:#C13
4:z_Zero:4200
5:Operator:djw77/nav31/kw570
==========
zscan inputs: 
z_sep:50000
z_range:200000 -5000000
data_path:/icon/data/2023_08_MoS2_5um_hbn_sub/
example_pos:-2895298.4007      130205.79607          -1000000
N_dwell:200
sampling_period:15
make_plots:0
m1:0.98976
m2:-0.0073571
==========
Detector params:
Sampling period (ms): 15.000000
N dwell: 200.000000
Filament current (A): 1.540000
Filament emission (mA): 1.733256
Solenoid current (A): NaN
Solenoid shim current (A): NaN
Lens params:
0  685
1  300
2  125
3      -0.002
4       -0.01
5       0.012
6         0.8
7         2.1
8         2.8
9  3000
10  1450
11         0.85
12   0
==========
Data:
z(nm),I(A)
200000,4.7887e-11,
100000,4.674e-11,
0,4.7453e-11,
-100000,4.8462e-11,
-200000,4.8461e-11,
-300000,4.6958e-11,
-400000,4.7795e-11,
-500000,4.8277e-11,
-600000,4.8142e-11,
-700000,4.8116e-11,
-800000,4.8014e-11,
-900000,4.9123e-11,
-1000000,4.9187e-11,
-1100000,4.9091e-11,
-1200000,4.8994e-11,
-1300000,4.9233e-11,
-1400000,4.9489e-11,
-1500000,4.9444e-11,
-1600000,5.0716e-11,
-1700000,4.8698e-11,
-1800000,4.8756e-11,
-1900000,4.9493e-11,
-2000000,4.9282e-11,
-2100000,4.8905e-11,
-2200000,4.821e-11,
-2300000,4.7448e-11,
-2400000,4.7035e-11,
-2500000,4.6879e-11,
-2600000,4.591e-11,
-2700000,4.7474e-11,
-2800000,4.5053e-11,
-2900000,4.41e-11,
-3000000,4.3708e-11,
-3100000,4.4442e-11,
-3200000,4.3645e-11,
-3300000,4.1625e-11,
-3400000,4.1594e-11,
-3500000,4.1489e-11,
-3600000,4.0312e-11,
-3700000,3.8963e-11,
-3800000,3.8947e-11,
-3900000,3.7888e-11,
-4000000,3.6533e-11,
-4100000,3.6848e-11,
-4200000,3.6588e-11,
-4300000,3.5122e-11,
-4400000,3.5293e-11,
-4500000,3.378e-11,
-4600000,3.3505e-11,
-4700000,3.2326e-11,
-4800000,3.1608e-11,
-4900000,3.2057e-11,
-5000000,3.0698e-11,
-4950000,3.1675e-11,
-4850000,3.1992e-11,
-4750000,3.2261e-11,
-4650000,3.302e-11,
-4550000,3.4052e-11,
-4450000,3.4057e-11,
-4350000,3.5039e-11,
-4250000,3.57e-11,
-4150000,3.5406e-11,
-4050000,3.6684e-11,
-3950000,3.7928e-11,
-3850000,3.7484e-11,
-3750000,3.8862e-11,
-3650000,3.941e-11,
-3550000,4.0986e-11,
-3450000,4.0407e-11,
-3350000,4.1234e-11,
-3250000,4.2447e-11,
-3150000,4.3406e-11,
-3050000,4.2989e-11,
-2950000,4.4098e-11,
-2850000,4.4833e-11,
-2750000,4.6044e-11,
-2650000,4.6565e-11,
-2550000,4.7287e-11,
-2450000,4.67e-11,
-2350000,4.7804e-11,
-2250000,4.8343e-11,
-2150000,4.7128e-11,
-2050000,4.8602e-11,
-1950000,4.8724e-11,
-1850000,4.8861e-11,
-1750000,4.9695e-11,
-1650000,4.9156e-11,
-1550000,4.9737e-11,
-1450000,4.9699e-11,
-1350000,4.9411e-11,
-1250000,4.9435e-11,
-1150000,4.8953e-11,
-1050000,4.8443e-11,
-950000,4.9194e-11,
-850000,4.821e-11,
-750000,4.8658e-11,
-650000,4.7403e-11,
-550000,4.8072e-11,
-450000,4.8389e-11,
-350000,4.7696e-11,
-250000,4.7423e-11,
-150000,4.7283e-11,
-50000,4.6159e-11,
50000,4.7422e-11,
150000,4.6027e-11,
