General parameters:
Start time: 2023              8             22              2             34      10.394444
Finish time: 2023              8             22              2             40        7.39132
Dwell time (ms): 3000.000000
Source chamber pressure: 2.00e+3
Differential chamber pressure: 7.99e-07
Sample chamber pressure: 3.74e-08
Example position (nm): -3246005.038121,320819.144693,-1000000.000000
Rotation angle (udeg): 105000110.000000
==========
Instrument status: 
0:Data Directory:/icon/data/2023_08_MoS2_5um_hbn_sub/
1:Sample:MoS2
2:Comments:no
3:PinholePlate:#C13
4:z_Zero:4200
5:Operator:djw77/nav31/kw570
==========
zscan inputs: 
z_sep:50000
z_range:200000 -5000000
data_path:/icon/data/2023_08_MoS2_5um_hbn_sub/
example_pos:-3246005.0381      320819.14469          -1000000
N_dwell:200
sampling_period:15
make_plots:0
m1:0.98976
m2:-0.0073571
==========
Detector params:
Sampling period (ms): 15.000000
N dwell: 200.000000
Filament current (A): 1.540000
Filament emission (mA): 1.753092
Solenoid current (A): NaN
Solenoid shim current (A): NaN
Lens params:
0  685
1  300
2  125
3      -0.002
4       -0.01
5       0.012
6         0.8
7         2.1
8         2.8
9  3000
10  1450
11         0.85
12   0
==========
Data:
z(nm),I(A)
200000,4.4378e-11,
100000,4.4231e-11,
0,4.5513e-11,
-100000,4.5243e-11,
-200000,4.5468e-11,
-300000,4.7183e-11,
-400000,4.7998e-11,
-500000,5.1168e-11,
-600000,5.642e-11,
-700000,6.7391e-11,
-800000,8.9971e-11,
-900000,1.149e-10,
-1000000,1.0527e-10,
-1100000,8.6011e-11,
-1200000,7.3026e-11,
-1300000,6.1402e-11,
-1400000,5.7464e-11,
-1500000,5.4897e-11,
-1600000,5.857e-11,
-1700000,6.3065e-11,
-1800000,6.1287e-11,
-1900000,5.3901e-11,
-2000000,4.9351e-11,
-2100000,4.655e-11,
-2200000,4.5313e-11,
-2300000,4.5786e-11,
-2400000,4.5658e-11,
-2500000,4.6344e-11,
-2600000,4.4859e-11,
-2700000,4.5382e-11,
-2800000,4.3248e-11,
-2900000,4.2586e-11,
-3000000,4.1266e-11,
-3100000,4.1216e-11,
-3200000,4.1366e-11,
-3300000,4.4631e-11,
-3400000,4.466e-11,
-3500000,3.8805e-11,
-3600000,3.896e-11,
-3700000,3.9171e-11,
-3800000,3.6753e-11,
-3900000,3.517e-11,
-4000000,3.4393e-11,
-4100000,3.3466e-11,
-4200000,3.3291e-11,
-4300000,3.2219e-11,
-4400000,3.2264e-11,
-4500000,3.0884e-11,
-4600000,3.0812e-11,
-4700000,3.0081e-11,
-4800000,2.9601e-11,
-4900000,2.895e-11,
-5000000,2.7847e-11,
-4950000,2.8283e-11,
-4850000,2.8557e-11,
-4750000,2.9201e-11,
-4650000,3.009e-11,
-4550000,3.0223e-11,
-4450000,3.0825e-11,
-4350000,3.1729e-11,
-4250000,3.2484e-11,
-4150000,3.299e-11,
-4050000,3.3878e-11,
-3950000,3.5379e-11,
-3850000,3.6244e-11,
-3750000,4.0008e-11,
-3650000,4.0886e-11,
-3550000,4.0761e-11,
-3450000,4.4718e-11,
-3350000,4.8203e-11,
-3250000,4.5212e-11,
-3150000,4.38e-11,
-3050000,4.4022e-11,
-2950000,4.3379e-11,
-2850000,4.4085e-11,
-2750000,4.3234e-11,
-2650000,4.4952e-11,
-2550000,4.5169e-11,
-2450000,4.4683e-11,
-2350000,4.5663e-11,
-2250000,4.6372e-11,
-2150000,4.5274e-11,
-2050000,4.6396e-11,
-1950000,5.1439e-11,
-1850000,5.7558e-11,
-1750000,6.1504e-11,
-1650000,6.2411e-11,
-1550000,5.8754e-11,
-1450000,5.528e-11,
-1350000,5.759e-11,
-1250000,6.6096e-11,
-1150000,7.4497e-11,
-1050000,9.8752e-11,
-950000,1.1325e-10,
-850000,1.0383e-10,
-750000,7.9814e-11,
-650000,6.1808e-11,
-550000,5.3976e-11,
-450000,4.9177e-11,
-350000,4.8182e-11,
-250000,4.7106e-11,
-150000,4.5479e-11,
-50000,4.4848e-11,
50000,4.4993e-11,
150000,4.3988e-11,
