General parameters:
Start time: 2023              8             19             17             16      27.094878
Finish time: 2023              8             19             17             22       24.35935
Dwell time (ms): 3000.000000
Source chamber pressure: 2.00e+3
Differential chamber pressure: 7.98e-07
Sample chamber pressure: 3.79e-08
Example position (nm): -2852747.739914,175939.169275,-1000000.000000
Rotation angle (udeg): 129999955.000000
==========
Instrument status: 
0:Data Directory:/icon/data/2023_08_MoS2_5um_hbn_sub/
1:Sample:MoS2
2:Comments:no
3:PinholePlate:#C13
4:z_Zero:4200
5:Operator:djw77/nav31/kw570
==========
zscan inputs: 
z_sep:50000
z_range:200000 -5000000
data_path:/icon/data/2023_08_MoS2_5um_hbn_sub/
example_pos:-2852747.7399      175939.16927          -1000000
N_dwell:200
sampling_period:15
make_plots:0
m1:0.98976
m2:-0.0073571
==========
Detector params:
Sampling period (ms): 15.000000
N dwell: 200.000000
Filament current (A): 1.540000
Filament emission (mA): 1.692558
Solenoid current (A): NaN
Solenoid shim current (A): NaN
Lens params:
0  685
1  300
2  125
3      -0.002
4       -0.01
5       0.012
6         0.8
7         2.1
8         2.8
9  3000
10  1450
11         0.85
12   0
==========
Data:
z(nm),I(A)
200000,4.4101e-11,
100000,4.5732e-11,
0,4.5442e-11,
-100000,4.5525e-11,
-200000,4.6805e-11,
-300000,4.6795e-11,
-400000,4.6419e-11,
-500000,4.7061e-11,
-600000,4.5871e-11,
-700000,4.6844e-11,
-800000,4.6756e-11,
-900000,4.7011e-11,
-1000000,4.6331e-11,
-1100000,4.7109e-11,
-1200000,4.7149e-11,
-1300000,4.7498e-11,
-1400000,4.7869e-11,
-1500000,4.7443e-11,
-1600000,4.785e-11,
-1700000,4.7294e-11,
-1800000,4.7948e-11,
-1900000,4.7968e-11,
-2000000,4.7855e-11,
-2100000,4.7033e-11,
-2200000,4.7482e-11,
-2300000,4.6129e-11,
-2400000,4.5471e-11,
-2500000,4.5655e-11,
-2600000,4.4398e-11,
-2700000,4.4133e-11,
-2800000,4.3635e-11,
-2900000,4.3293e-11,
-3000000,4.2391e-11,
-3100000,4.1756e-11,
-3200000,4.0651e-11,
-3300000,4.0313e-11,
-3400000,4.0674e-11,
-3500000,3.8969e-11,
-3600000,3.9269e-11,
-3700000,3.7403e-11,
-3800000,3.7771e-11,
-3900000,3.6356e-11,
-4000000,3.6125e-11,
-4100000,3.4313e-11,
-4200000,3.4432e-11,
-4300000,3.3859e-11,
-4400000,3.3098e-11,
-4500000,3.1601e-11,
-4600000,3.1699e-11,
-4700000,3.1934e-11,
-4800000,3.0948e-11,
-4900000,3.0423e-11,
-5000000,2.9229e-11,
-4950000,2.9827e-11,
-4850000,3.0512e-11,
-4750000,3.0491e-11,
-4650000,3.1917e-11,
-4550000,3.1765e-11,
-4450000,3.2771e-11,
-4350000,3.3803e-11,
-4250000,3.3165e-11,
-4150000,3.4725e-11,
-4050000,3.5302e-11,
-3950000,3.5685e-11,
-3850000,3.5856e-11,
-3750000,3.7973e-11,
-3650000,3.7595e-11,
-3550000,3.7927e-11,
-3450000,3.9888e-11,
-3350000,4.1207e-11,
-3250000,4.1913e-11,
-3150000,4.1613e-11,
-3050000,4.1881e-11,
-2950000,4.3294e-11,
-2850000,4.2956e-11,
-2750000,4.3675e-11,
-2650000,4.4488e-11,
-2550000,4.553e-11,
-2450000,4.3889e-11,
-2350000,4.5342e-11,
-2250000,4.5954e-11,
-2150000,4.7594e-11,
-2050000,4.7318e-11,
-1950000,4.6242e-11,
-1850000,4.685e-11,
-1750000,4.721e-11,
-1650000,4.7027e-11,
-1550000,4.7298e-11,
-1450000,4.8177e-11,
-1350000,4.7689e-11,
-1250000,4.8394e-11,
-1150000,4.8076e-11,
-1050000,4.7394e-11,
-950000,4.6962e-11,
-850000,4.7048e-11,
-750000,4.7192e-11,
-650000,4.6882e-11,
-550000,4.6977e-11,
-450000,4.5771e-11,
-350000,4.6423e-11,
-250000,4.64e-11,
-150000,4.5648e-11,
-50000,4.4888e-11,
50000,4.5636e-11,
150000,4.5507e-11,
