General parameters:
Start time: 2023              8             28              5             10       3.155586
Finish time: 2023              8             28              5             16       0.016287
Dwell time (ms): 3000.000000
Source chamber pressure: 2.00e+3
Differential chamber pressure: 6.32e-07
Sample chamber pressure: 3.62e-08
Example position (nm): -2861250.941120,221716.899068,-1000000.000000
Rotation angle (udeg): 127499845.000000
==========
Instrument status: 
0:Data Directory:/icon/data/2023_08_MoS2_5um_hbn_sub/
1:Sample:MoS2
2:Comments:no
3:PinholePlate:#C13
4:z_Zero:4200
5:Operator:djw77/nav31/kw570
==========
zscan inputs: 
z_sep:50000
z_range:200000 -5000000
data_path:/icon/data/2023_08_MoS2_5um_hbn_sub/
example_pos:-2861250.9411      221716.89907          -1000000
N_dwell:200
sampling_period:15
make_plots:1
m1:0.98976
m2:-0.0073571
==========
Detector params:
Sampling period (ms): 15.000000
N dwell: 200.000000
Filament current (A): 1.540000
Filament emission (mA): 1.902546
Solenoid current (A): NaN
Solenoid shim current (A): NaN
Lens params:
0  685
1  300
2  125
3      -0.002
4       -0.01
5       0.012
6         0.8
7         2.1
8         2.8
9  3000
10  1450
11         0.85
12   0
==========
Data:
z(nm),I(A)
200000,7.1997e-11,
100000,7.1954e-11,
0,6.893e-11,
-100000,6.6409e-11,
-200000,6.3259e-11,
-300000,6.3006e-11,
-400000,6.4484e-11,
-500000,6.7108e-11,
-600000,7.7834e-11,
-700000,9.3502e-11,
-800000,1.1538e-10,
-900000,1.1674e-10,
-1000000,9.6927e-11,
-1100000,8.1104e-11,
-1200000,7.0895e-11,
-1300000,6.6564e-11,
-1400000,6.5898e-11,
-1500000,7.1074e-11,
-1600000,8.0744e-11,
-1700000,8.9464e-11,
-1800000,9.2342e-11,
-1900000,8.6063e-11,
-2000000,6.9174e-11,
-2100000,6.3833e-11,
-2200000,6.1884e-11,
-2300000,6.3483e-11,
-2400000,7.3017e-11,
-2500000,8.5153e-11,
-2600000,1.0001e-10,
-2700000,1.0706e-10,
-2800000,1.0371e-10,
-2900000,9.2245e-11,
-3000000,7.6094e-11,
-3100000,6.4743e-11,
-3200000,5.8702e-11,
-3300000,5.6389e-11,
-3400000,5.5858e-11,
-3500000,5.7632e-11,
-3600000,6.0225e-11,
-3700000,6.4011e-11,
-3800000,6.4155e-11,
-3900000,6.1748e-11,
-4000000,5.8478e-11,
-4100000,5.2045e-11,
-4200000,4.7811e-11,
-4300000,4.3191e-11,
-4400000,3.968e-11,
-4500000,3.8304e-11,
-4600000,3.5864e-11,
-4700000,3.472e-11,
-4800000,3.4367e-11,
-4900000,3.3962e-11,
-5000000,3.3924e-11,
-4950000,3.4635e-11,
-4850000,3.3305e-11,
-4750000,3.4675e-11,
-4650000,3.5106e-11,
-4550000,3.6599e-11,
-4450000,3.775e-11,
-4350000,4.0926e-11,
-4250000,4.3889e-11,
-4150000,4.9337e-11,
-4050000,5.4238e-11,
-3950000,6.1879e-11,
-3850000,6.2905e-11,
-3750000,6.3787e-11,
-3650000,6.3738e-11,
-3550000,5.9502e-11,
-3450000,5.6848e-11,
-3350000,5.5966e-11,
-3250000,5.6479e-11,
-3150000,5.9656e-11,
-3050000,6.9244e-11,
-2950000,8.1715e-11,
-2850000,9.7785e-11,
-2750000,1.0709e-10,
-2650000,1.0503e-10,
-2550000,9.4408e-11,
-2450000,7.9524e-11,
-2350000,6.8687e-11,
-2250000,6.2734e-11,
-2150000,6.0334e-11,
-2050000,6.5766e-11,
-1950000,7.6969e-11,
-1850000,8.8075e-11,
-1750000,9.0738e-11,
-1650000,8.3923e-11,
-1550000,7.5895e-11,
-1450000,6.8981e-11,
-1350000,6.5054e-11,
-1250000,6.7385e-11,
-1150000,7.4541e-11,
-1050000,8.6985e-11,
-950000,1.0619e-10,
-850000,1.1781e-10,
-750000,1.0809e-10,
-650000,8.807e-11,
-550000,7.2219e-11,
-450000,6.5942e-11,
-350000,6.4202e-11,
-250000,6.2265e-11,
-150000,6.4622e-11,
-50000,6.832e-11,
50000,7.0455e-11,
150000,7.0911e-11,
