General parameters:
Start time: 2023             12             26             16             17       5.629405
Finish time: 2023             12             26             16             33      48.659044
Dwell time (ms): 3750.000000
Source chamber pressure: Error-S
Differential chamber pressure: 1.07e-03
Sample chamber pressure: 1.54e-08
Example position (nm): -3224000.000000,-1226000.000000,-750000.000000
Rotation angle (udeg): 90000070.000000
==========
Instrument status: 
0:Data Directory:/icon/data/2023_12_defect1_repeat_5um_hbn_sub/
1:Sample:MoS2
2:Comments:no
3:PinholePlate:#C13
4:z_Zero:4200
5:Operator:djw77/nav31/kw570
==========
zscan inputs: 
z_sep:50000
z_range:0 -6000000
data_path:/icon/data/2023_12_defect1_repeat_5um_hbn_sub/
example_pos:-3224000 -1226000  -750000
N_dwell:250
sampling_period:15
make_plots:1
m1:0.9867
m2:-0.008
example_pos_norm_1:-3200000 -1995000  -750000
==========
Detector params:
Sampling period (ms): 15.000000
N dwell: 250.000000
Filament current (A): 1.540000
Filament emission (mA): 3.316032
Solenoid current (A): NaN
Solenoid shim current (A): NaN
Lens params:
0  685
1  300
2  125
3      -0.002
4       -0.01
5       0.012
6         0.8
7         2.1
8         2.8
9  3500
10  1400
11         0.85
12   0
==========
Data:
z(nm),I(A)
0,2.4105e-10,
-100000,1.9442e-10,
-200000,1.7664e-10,
-300000,1.6818e-10,
-400000,1.7175e-10,
-500000,1.9671e-10,
-600000,2.5088e-10,
-700000,3.5058e-10,
-800000,4.0538e-10,
-900000,4.0714e-10,
-1000000,3.5315e-10,
-1100000,2.6327e-10,
-1200000,2.1124e-10,
-1300000,1.8508e-10,
-1400000,1.8115e-10,
-1500000,1.9164e-10,
-1600000,2.1304e-10,
-1700000,2.2963e-10,
-1800000,2.2876e-10,
-1900000,2.1189e-10,
-2000000,1.8274e-10,
-2100000,1.6271e-10,
-2200000,1.5499e-10,
-2300000,1.5333e-10,
-2400000,1.6139e-10,
-2500000,1.7268e-10,
-2600000,1.8474e-10,
-2700000,1.9051e-10,
-2800000,1.8571e-10,
-2900000,1.7368e-10,
-3000000,1.592e-10,
-3100000,1.4685e-10,
-3200000,1.3786e-10,
-3300000,1.3157e-10,
-3400000,1.2723e-10,
-3500000,1.2492e-10,
-3600000,1.2265e-10,
-3700000,1.2063e-10,
-3800000,1.1882e-10,
-3900000,1.1538e-10,
-4000000,1.119e-10,
-4100000,1.0942e-10,
-4200000,1.0766e-10,
-4300000,1.044e-10,
-4400000,1.0294e-10,
-4500000,1.0166e-10,
-4600000,9.8885e-11,
-4700000,9.7508e-11,
-4800000,9.7363e-11,
-4900000,9.473e-11,
-5000000,9.2211e-11,
-5100000,9.1123e-11,
-5200000,8.9692e-11,
-5300000,8.8877e-11,
-5400000,8.7651e-11,
-5500000,8.6419e-11,
-5600000,8.5675e-11,
-5700000,8.5576e-11,
-5800000,8.4296e-11,
-5900000,8.3471e-11,
-6000000,8.2537e-11,
-5950000,8.2132e-11,
-5850000,8.332e-11,
-5750000,8.4635e-11,
-5650000,8.5552e-11,
-5550000,8.71e-11,
-5450000,8.8653e-11,
-5350000,8.901e-11,
-5250000,8.9436e-11,
-5150000,8.9711e-11,
-5050000,9.1704e-11,
-4950000,9.2805e-11,
-4850000,9.4566e-11,
-4750000,9.636e-11,
-4650000,9.8173e-11,
-4550000,9.9601e-11,
-4450000,1.0176e-10,
-4350000,1.0426e-10,
-4250000,1.0576e-10,
-4150000,1.0828e-10,
-4050000,1.1017e-10,
-3950000,1.1335e-10,
-3850000,1.1598e-10,
-3750000,1.192e-10,
-3650000,1.2125e-10,
-3550000,1.2277e-10,
-3450000,1.2581e-10,
-3350000,1.2993e-10,
-3250000,1.3398e-10,
-3150000,1.4215e-10,
-3050000,1.524e-10,
-2950000,1.6706e-10,
-2850000,1.7936e-10,
-2750000,1.8881e-10,
-2650000,1.8788e-10,
-2550000,1.7886e-10,
-2450000,1.6613e-10,
-2350000,1.5731e-10,
-2250000,1.5243e-10,
-2150000,1.5774e-10,
-2050000,1.7055e-10,
-1950000,1.956e-10,
-1850000,2.2366e-10,
-1750000,2.3313e-10,
-1650000,2.2525e-10,
-1550000,2.017e-10,
-1450000,1.8511e-10,
-1350000,1.8121e-10,
-1250000,1.96e-10,
-1150000,2.3729e-10,
-1050000,3.1458e-10,
-950000,4.0065e-10,
-850000,4.2688e-10,
-750000,3.9399e-10,
-650000,3.0317e-10,
-550000,2.2036e-10,
-450000,1.8129e-10,
-350000,1.691e-10,
-250000,1.7122e-10,
-150000,1.8356e-10,
-50000,2.0603e-10,
