General parameters:
Start time: 2024              1              4             17             31      55.578947
Finish time: 2024              1              4             17             56       47.18455
Dwell time (ms): 3750.000000
Source chamber pressure: Error-S
Differential chamber pressure: 1.07e-03
Sample chamber pressure: 1.62e-08
Example position (nm): -3143000.000000,-1223000.000000,-750000.000000
Rotation angle (udeg): 82500075.000000
==========
Instrument status: 
0:Data Directory:/icon/data/2023_12_defect1_repeat_5um_hbn_sub/
1:Sample:MoS2
2:Comments:no
3:PinholePlate:#C13
4:z_Zero:4200
5:Operator:djw77/nav31/kw570
==========
zscan inputs: 
z_sep:50000
z_range:0 -6000000
data_path:/icon/data/2023_12_defect1_repeat_5um_hbn_sub/
example_pos:-3143000 -1223000  -750000
N_dwell:250
sampling_period:15
make_plots:1
m1:0.9867
m2:-0.008
example_pos_norm_1:-3225000 -1225000  -750000
example_pos_norm_2:-3154000 -1267000  -750000
==========
Detector params:
Sampling period (ms): 15.000000
N dwell: 250.000000
Filament current (A): 1.540000
Filament emission (mA): 3.366990
Solenoid current (A): NaN
Solenoid shim current (A): NaN
Lens params:
0  685
1  300
2  125
3      -0.002
4       -0.01
5       0.012
6         0.8
7         2.1
8         2.8
9  3500
10  1400
11         0.85
12   0
==========
Data:
z(nm),I(A)
0,2.3351e-10,
-100000,1.9997e-10,
-200000,1.761e-10,
-300000,1.6311e-10,
-400000,1.6757e-10,
-500000,1.9747e-10,
-600000,2.681e-10,
-700000,3.8828e-10,
-800000,4.6594e-10,
-900000,4.6761e-10,
-1000000,4.0451e-10,
-1100000,2.9287e-10,
-1200000,2.2255e-10,
-1300000,1.9001e-10,
-1400000,1.8759e-10,
-1500000,2.117e-10,
-1600000,2.5512e-10,
-1700000,2.8715e-10,
-1800000,2.865e-10,
-1900000,2.5687e-10,
-2000000,2.1062e-10,
-2100000,1.7127e-10,
-2200000,1.567e-10,
-2300000,1.664e-10,
-2400000,1.9501e-10,
-2500000,2.4363e-10,
-2600000,2.9047e-10,
-2700000,3.2062e-10,
-2800000,3.1467e-10,
-2900000,2.7789e-10,
-3000000,2.2724e-10,
-3100000,1.7522e-10,
-3200000,1.447e-10,
-3300000,1.2981e-10,
-3400000,1.2617e-10,
-3500000,1.2798e-10,
-3600000,1.3236e-10,
-3700000,1.3601e-10,
-3800000,1.3981e-10,
-3900000,1.3769e-10,
-4000000,1.3687e-10,
-4100000,1.2674e-10,
-4200000,1.1649e-10,
-4300000,1.0643e-10,
-4400000,9.809e-11,
-4500000,9.4152e-11,
-4600000,8.9146e-11,
-4700000,8.7438e-11,
-4800000,8.4714e-11,
-4900000,8.2799e-11,
-5000000,8.2944e-11,
-5100000,8.0932e-11,
-5200000,8.0636e-11,
-5300000,8.174e-11,
-5400000,7.9809e-11,
-5500000,7.9894e-11,
-5600000,7.9079e-11,
-5700000,7.8209e-11,
-5800000,7.5962e-11,
-5900000,7.5504e-11,
-6000000,7.3355e-11,
-5950000,7.375e-11,
-5850000,7.5753e-11,
-5750000,7.5921e-11,
-5650000,7.8699e-11,
-5550000,7.8954e-11,
-5450000,7.9742e-11,
-5350000,8.0844e-11,
-5250000,8.0825e-11,
-5150000,8.222e-11,
-5050000,8.2772e-11,
-4950000,8.3029e-11,
-4850000,8.4375e-11,
-4750000,8.5136e-11,
-4650000,8.8466e-11,
-4550000,9.0644e-11,
-4450000,9.6466e-11,
-4350000,1.0107e-10,
-4250000,1.0975e-10,
-4150000,1.1998e-10,
-4050000,1.3127e-10,
-3950000,1.3769e-10,
-3850000,1.4049e-10,
-3750000,1.3828e-10,
-3650000,1.3358e-10,
-3550000,1.3094e-10,
-3450000,1.2793e-10,
-3350000,1.2671e-10,
-3250000,1.3608e-10,
-3150000,1.5555e-10,
-3050000,1.9441e-10,
-2950000,2.4629e-10,
-2850000,2.9428e-10,
-2750000,3.2118e-10,
-2650000,3.147e-10,
-2550000,2.7817e-10,
-2450000,2.2494e-10,
-2350000,1.829e-10,
-2250000,1.5985e-10,
-2150000,1.5986e-10,
-2050000,1.8615e-10,
-1950000,2.3415e-10,
-1850000,2.7398e-10,
-1750000,2.8918e-10,
-1650000,2.7736e-10,
-1550000,2.3803e-10,
-1450000,2.0113e-10,
-1350000,1.8681e-10,
-1250000,1.9963e-10,
-1150000,2.4738e-10,
-1050000,3.3871e-10,
-950000,4.4113e-10,
-850000,4.7933e-10,
-750000,4.4302e-10,
-650000,3.3881e-10,
-550000,2.3273e-10,
-450000,1.7959e-10,
-350000,1.6482e-10,
-250000,1.6817e-10,
-150000,1.8516e-10,
-50000,2.1429e-10,
