General parameters:
Start time: 2023             12             30             15             15      40.090556
Finish time: 2023             12             30             15             32      20.669017
Dwell time (ms): 3750.000000
Source chamber pressure: Error-S
Differential chamber pressure: 1.05e-03
Sample chamber pressure: 1.60e-08
Example position (nm): -3768000.000000,-764000.000000,-750000.000000
Rotation angle (udeg): 170000000.000000
==========
Instrument status: 
0:Data Directory:/icon/data/2023_12_defect1_repeat_5um_hbn_sub/
1:Sample:MoS2
2:Comments:no
3:PinholePlate:#C13
4:z_Zero:4200
5:Operator:djw77/nav31/kw570
==========
zscan inputs: 
z_sep:50000
z_range:0 -6000000
data_path:/icon/data/2023_12_defect1_repeat_5um_hbn_sub/
example_pos:-3768000  -764000  -750000
N_dwell:250
sampling_period:15
make_plots:1
m1:0.9867
m2:-0.008
example_pos_norm_1:-3775000  -650000  -750000
==========
Detector params:
Sampling period (ms): 15.000000
N dwell: 250.000000
Filament current (A): 1.540000
Filament emission (mA): 3.336552
Solenoid current (A): NaN
Solenoid shim current (A): NaN
Lens params:
0  685
1  300
2  125
3      -0.002
4       -0.01
5       0.012
6         0.8
7         2.1
8         2.8
9  3500
10  1400
11         0.85
12   0
==========
Data:
z(nm),I(A)
0,1.4887e-10,
-100000,1.4851e-10,
-200000,1.5028e-10,
-300000,1.6508e-10,
-400000,1.9287e-10,
-500000,2.455e-10,
-600000,3.1495e-10,
-700000,3.3305e-10,
-800000,2.9008e-10,
-900000,2.3077e-10,
-1000000,1.8893e-10,
-1100000,1.6964e-10,
-1200000,1.585e-10,
-1300000,1.5221e-10,
-1400000,1.5034e-10,
-1500000,1.4876e-10,
-1600000,1.4468e-10,
-1700000,1.4225e-10,
-1800000,1.4121e-10,
-1900000,1.4926e-10,
-2000000,1.6405e-10,
-2100000,1.8179e-10,
-2200000,1.9491e-10,
-2300000,1.9348e-10,
-2400000,1.7778e-10,
-2500000,1.5474e-10,
-2600000,1.346e-10,
-2700000,1.2296e-10,
-2800000,1.1777e-10,
-2900000,1.1609e-10,
-3000000,1.1547e-10,
-3100000,1.1449e-10,
-3200000,1.1322e-10,
-3300000,1.1002e-10,
-3400000,1.0678e-10,
-3500000,1.0387e-10,
-3600000,1.0223e-10,
-3700000,1.0198e-10,
-3800000,1.0146e-10,
-3900000,1.0187e-10,
-4000000,1.0235e-10,
-4100000,1.0303e-10,
-4200000,1.0136e-10,
-4300000,1.0047e-10,
-4400000,9.7804e-11,
-4500000,9.4016e-11,
-4600000,9.2043e-11,
-4700000,8.761e-11,
-4800000,8.4735e-11,
-4900000,8.2686e-11,
-5000000,8.1281e-11,
-5100000,7.8689e-11,
-5200000,7.9898e-11,
-5300000,7.7956e-11,
-5400000,7.689e-11,
-5500000,7.6034e-11,
-5600000,7.5494e-11,
-5700000,7.5616e-11,
-5800000,7.4939e-11,
-5900000,7.4118e-11,
-6000000,7.3075e-11,
-5950000,7.3528e-11,
-5850000,7.4383e-11,
-5750000,7.4975e-11,
-5650000,7.5057e-11,
-5550000,7.5042e-11,
-5450000,7.6504e-11,
-5350000,7.6988e-11,
-5250000,7.873e-11,
-5150000,8.0182e-11,
-5050000,8.119e-11,
-4950000,8.3072e-11,
-4850000,8.3686e-11,
-4750000,8.5855e-11,
-4650000,8.8737e-11,
-4550000,9.2477e-11,
-4450000,9.582e-11,
-4350000,9.8157e-11,
-4250000,9.9782e-11,
-4150000,1.0287e-10,
-4050000,1.0313e-10,
-3950000,1.019e-10,
-3850000,1.0222e-10,
-3750000,1.0171e-10,
-3650000,1.0247e-10,
-3550000,1.041e-10,
-3450000,1.0599e-10,
-3350000,1.083e-10,
-3250000,1.1188e-10,
-3150000,1.1488e-10,
-3050000,1.1636e-10,
-2950000,1.1354e-10,
-2850000,1.1659e-10,
-2750000,1.1937e-10,
-2650000,1.2816e-10,
-2550000,1.4395e-10,
-2450000,1.6779e-10,
-2350000,1.8852e-10,
-2250000,1.9731e-10,
-2150000,1.913e-10,
-2050000,1.7362e-10,
-1950000,1.5628e-10,
-1850000,1.4584e-10,
-1750000,1.4128e-10,
-1650000,1.433e-10,
-1550000,1.4681e-10,
-1450000,1.5044e-10,
-1350000,1.5329e-10,
-1250000,1.5541e-10,
-1150000,1.6229e-10,
-1050000,1.7721e-10,
-950000,2.1117e-10,
-850000,2.5789e-10,
-750000,3.2112e-10,
-650000,3.3255e-10,
-550000,2.812e-10,
-450000,2.1512e-10,
-350000,1.7702e-10,
-250000,1.5783e-10,
-150000,1.4784e-10,
-50000,1.4687e-10,
