General parameters:
Start time: 2024              1              9             13             29      38.423244
Finish time: 2024              1              9             13             54      29.772718
Dwell time (ms): 3750.000000
Source chamber pressure: Error-S
Differential chamber pressure: 1.01e-03
Sample chamber pressure: 1.60e-08
Example position (nm): -3640000.000000,-1036000.000000,-750000.000000
Rotation angle (udeg): 137500065.000000
==========
Instrument status: 
0:Data Directory:/icon/data/2023_12_defect1_repeat_5um_hbn_sub/
1:Sample:MoS2
2:Comments:no
3:PinholePlate:#C13
4:z_Zero:4200
5:Operator:djw77/nav31/kw570
==========
zscan inputs: 
z_sep:50000
z_range:0 -6000000
data_path:/icon/data/2023_12_defect1_repeat_5um_hbn_sub/
example_pos:-3640000 -1036000  -750000
N_dwell:250
sampling_period:15
make_plots:1
m1:0.9867
m2:-0.008
example_pos_norm_1:-3675000  -975000  -750000
example_pos_norm_2:-3684000 -1049000  -750000
==========
Detector params:
Sampling period (ms): 15.000000
N dwell: 250.000000
Filament current (A): 1.540000
Filament emission (mA): 3.402558
Solenoid current (A): NaN
Solenoid shim current (A): NaN
Lens params:
0  685
1  300
2  125
3      -0.002
4       -0.01
5       0.012
6         0.8
7         2.1
8         2.8
9  3500
10  1400
11         0.85
12   0
==========
Data:
z(nm),I(A)
0,1.7068e-10,
-100000,1.6234e-10,
-200000,1.5881e-10,
-300000,1.6177e-10,
-400000,1.7637e-10,
-500000,2.1639e-10,
-600000,2.8604e-10,
-700000,3.7259e-10,
-800000,3.9872e-10,
-900000,3.3914e-10,
-1000000,2.5697e-10,
-1100000,1.9886e-10,
-1200000,1.7549e-10,
-1300000,1.7134e-10,
-1400000,1.9564e-10,
-1500000,2.4492e-10,
-1600000,2.8176e-10,
-1700000,2.9176e-10,
-1800000,2.6426e-10,
-1900000,2.1662e-10,
-2000000,1.7666e-10,
-2100000,1.6081e-10,
-2200000,1.7165e-10,
-2300000,2.0854e-10,
-2400000,2.6599e-10,
-2500000,3.2655e-10,
-2600000,3.5921e-10,
-2700000,3.5121e-10,
-2800000,3.1014e-10,
-2900000,2.4699e-10,
-3000000,1.9416e-10,
-3100000,1.6285e-10,
-3200000,1.5072e-10,
-3300000,1.4924e-10,
-3400000,1.5667e-10,
-3500000,1.6988e-10,
-3600000,1.803e-10,
-3700000,1.8528e-10,
-3800000,1.8189e-10,
-3900000,1.7125e-10,
-4000000,1.5359e-10,
-4100000,1.3593e-10,
-4200000,1.2016e-10,
-4300000,1.0928e-10,
-4400000,1.0106e-10,
-4500000,9.6104e-11,
-4600000,9.3135e-11,
-4700000,9.1308e-11,
-4800000,9.0172e-11,
-4900000,8.8982e-11,
-5000000,8.7968e-11,
-5100000,8.7398e-11,
-5200000,8.715e-11,
-5300000,8.6236e-11,
-5400000,8.3309e-11,
-5500000,8.053e-11,
-5600000,7.9604e-11,
-5700000,7.861e-11,
-5800000,7.6489e-11,
-5900000,7.5134e-11,
-6000000,7.4534e-11,
-5950000,7.4913e-11,
-5850000,7.5558e-11,
-5750000,7.6928e-11,
-5650000,7.8776e-11,
-5550000,8.0622e-11,
-5450000,8.2917e-11,
-5350000,8.392e-11,
-5250000,8.607e-11,
-5150000,8.6821e-11,
-5050000,8.7608e-11,
-4950000,8.8454e-11,
-4850000,8.8926e-11,
-4750000,9.2296e-11,
-4650000,9.2602e-11,
-4550000,9.427e-11,
-4450000,9.8988e-11,
-4350000,1.0426e-10,
-4250000,1.1313e-10,
-4150000,1.2626e-10,
-4050000,1.426e-10,
-3950000,1.6262e-10,
-3850000,1.7628e-10,
-3750000,1.8387e-10,
-3650000,1.8421e-10,
-3550000,1.7736e-10,
-3450000,1.6508e-10,
-3350000,1.533e-10,
-3250000,1.4953e-10,
-3150000,1.5416e-10,
-3050000,1.726e-10,
-2950000,2.1156e-10,
-2850000,2.7191e-10,
-2750000,3.2901e-10,
-2650000,3.5776e-10,
-2550000,3.5173e-10,
-2450000,3.0441e-10,
-2350000,2.4278e-10,
-2250000,1.9185e-10,
-2150000,1.6744e-10,
-2050000,1.633e-10,
-1950000,1.898e-10,
-1850000,2.3794e-10,
-1750000,2.7826e-10,
-1650000,2.9085e-10,
-1550000,2.7273e-10,
-1450000,2.2236e-10,
-1350000,1.8482e-10,
-1250000,1.7228e-10,
-1150000,1.8303e-10,
-1050000,2.1972e-10,
-950000,2.8554e-10,
-850000,3.7682e-10,
-750000,3.9981e-10,
-650000,3.4877e-10,
-550000,2.5642e-10,
-450000,1.9629e-10,
-350000,1.7093e-10,
-250000,1.6006e-10,
-150000,1.6064e-10,
-50000,1.6664e-10,
