General parameters:
Start time: 2023             12             28             19             42       43.12312
Finish time: 2023             12             28             19             59      20.422087
Dwell time (ms): 3750.000000
Source chamber pressure: Error-S
Differential chamber pressure: 1.06e-03
Sample chamber pressure: 1.58e-08
Example position (nm): -3734000.000000,-889500.000000,-750000.000000
Rotation angle (udeg): 155000095.000000
==========
Instrument status: 
0:Data Directory:/icon/data/2023_12_defect1_repeat_5um_hbn_sub/
1:Sample:MoS2
2:Comments:no
3:PinholePlate:#C13
4:z_Zero:4200
5:Operator:djw77/nav31/kw570
==========
zscan inputs: 
z_sep:50000
z_range:0 -6000000
data_path:/icon/data/2023_12_defect1_repeat_5um_hbn_sub/
example_pos:-3734000  -889500  -750000
N_dwell:250
sampling_period:15
make_plots:1
m1:0.9867
m2:-0.008
example_pos_norm_1:-3750000  -800000  -750000
==========
Detector params:
Sampling period (ms): 15.000000
N dwell: 250.000000
Filament current (A): 1.540000
Filament emission (mA): 3.326292
Solenoid current (A): NaN
Solenoid shim current (A): NaN
Lens params:
0  685
1  300
2  125
3      -0.002
4       -0.01
5       0.012
6         0.8
7         2.1
8         2.8
9  3500
10  1400
11         0.85
12   0
==========
Data:
z(nm),I(A)
0,1.8264e-10,
-100000,1.7018e-10,
-200000,1.641e-10,
-300000,1.666e-10,
-400000,1.8432e-10,
-500000,2.2523e-10,
-600000,2.8937e-10,
-700000,3.3493e-10,
-800000,3.2294e-10,
-900000,2.5977e-10,
-1000000,2.0568e-10,
-1100000,1.7341e-10,
-1200000,1.5813e-10,
-1300000,1.5012e-10,
-1400000,1.4863e-10,
-1500000,1.4974e-10,
-1600000,1.504e-10,
-1700000,1.4778e-10,
-1800000,1.4629e-10,
-1900000,1.456e-10,
-2000000,1.495e-10,
-2100000,1.5769e-10,
-2200000,1.6247e-10,
-2300000,1.5937e-10,
-2400000,1.5265e-10,
-2500000,1.4594e-10,
-2600000,1.4081e-10,
-2700000,1.3947e-10,
-2800000,1.4288e-10,
-2900000,1.533e-10,
-3000000,1.6448e-10,
-3100000,1.7654e-10,
-3200000,1.8038e-10,
-3300000,1.7755e-10,
-3400000,1.6573e-10,
-3500000,1.5026e-10,
-3600000,1.3254e-10,
-3700000,1.2049e-10,
-3800000,1.1217e-10,
-3900000,1.083e-10,
-4000000,1.0623e-10,
-4100000,1.0561e-10,
-4200000,1.0553e-10,
-4300000,1.0592e-10,
-4400000,1.0605e-10,
-4500000,1.0468e-10,
-4600000,1.0365e-10,
-4700000,1.0122e-10,
-4800000,9.7523e-11,
-4900000,9.453e-11,
-5000000,9.1574e-11,
-5100000,8.7739e-11,
-5200000,8.5544e-11,
-5300000,8.2862e-11,
-5400000,8.1776e-11,
-5500000,8.0332e-11,
-5600000,7.8605e-11,
-5700000,7.8856e-11,
-5800000,7.787e-11,
-5900000,7.7472e-11,
-6000000,7.5638e-11,
-5950000,7.6456e-11,
-5850000,7.6431e-11,
-5750000,7.8095e-11,
-5650000,7.8859e-11,
-5550000,7.884e-11,
-5450000,8.2099e-11,
-5350000,8.2718e-11,
-5250000,8.4407e-11,
-5150000,8.6453e-11,
-5050000,8.8629e-11,
-4950000,9.2075e-11,
-4850000,9.5965e-11,
-4750000,9.985e-11,
-4650000,1.0285e-10,
-4550000,1.0475e-10,
-4450000,1.0598e-10,
-4350000,1.0598e-10,
-4250000,1.0555e-10,
-4150000,1.0493e-10,
-4050000,1.0555e-10,
-3950000,1.0684e-10,
-3850000,1.1011e-10,
-3750000,1.1673e-10,
-3650000,1.2594e-10,
-3550000,1.3984e-10,
-3450000,1.5771e-10,
-3350000,1.7223e-10,
-3250000,1.8099e-10,
-3150000,1.8084e-10,
-3050000,1.7298e-10,
-2950000,1.5848e-10,
-2850000,1.4754e-10,
-2750000,1.4094e-10,
-2650000,1.3995e-10,
-2550000,1.4218e-10,
-2450000,1.4937e-10,
-2350000,1.5721e-10,
-2250000,1.6314e-10,
-2150000,1.6078e-10,
-2050000,1.5398e-10,
-1950000,1.4801e-10,
-1850000,1.4356e-10,
-1750000,1.4728e-10,
-1650000,1.4946e-10,
-1550000,1.5023e-10,
-1450000,1.4923e-10,
-1350000,1.4824e-10,
-1250000,1.5289e-10,
-1150000,1.6275e-10,
-1050000,1.8723e-10,
-950000,2.2908e-10,
-850000,2.9214e-10,
-750000,3.3768e-10,
-650000,3.1899e-10,
-550000,2.5527e-10,
-450000,2.0205e-10,
-350000,1.7431e-10,
-250000,1.6527e-10,
-150000,1.6494e-10,
-50000,1.7454e-10,
