General parameters:
Start time: 2023             12             28             18             20       2.635307
Finish time: 2023             12             28             18             36      39.526427
Dwell time (ms): 3750.000000
Source chamber pressure: Error-S
Differential chamber pressure: 1.05e-03
Sample chamber pressure: 1.62e-08
Example position (nm): -3692000.000000,-974000.000000,-750000.000000
Rotation angle (udeg): 144999995.000000
==========
Instrument status: 
0:Data Directory:/icon/data/2023_12_defect1_repeat_5um_hbn_sub/
1:Sample:MoS2
2:Comments:no
3:PinholePlate:#C13
4:z_Zero:4200
5:Operator:djw77/nav31/kw570
==========
zscan inputs: 
z_sep:50000
z_range:0 -6000000
data_path:/icon/data/2023_12_defect1_repeat_5um_hbn_sub/
example_pos:-3692000  -974000  -750000
N_dwell:250
sampling_period:15
make_plots:1
m1:0.9867
m2:-0.008
example_pos_norm_1:-3600000  -975000  -750000
==========
Detector params:
Sampling period (ms): 15.000000
N dwell: 250.000000
Filament current (A): 1.540000
Filament emission (mA): 3.322530
Solenoid current (A): NaN
Solenoid shim current (A): NaN
Lens params:
0  685
1  300
2  125
3      -0.002
4       -0.01
5       0.012
6         0.8
7         2.1
8         2.8
9  3500
10  1400
11         0.85
12   0
==========
Data:
z(nm),I(A)
0,1.8504e-10,
-100000,1.6987e-10,
-200000,1.6401e-10,
-300000,1.6647e-10,
-400000,1.7848e-10,
-500000,2.1408e-10,
-600000,2.7995e-10,
-700000,3.4102e-10,
-800000,3.4534e-10,
-900000,2.8605e-10,
-1000000,2.2258e-10,
-1100000,1.829e-10,
-1200000,1.6451e-10,
-1300000,1.6205e-10,
-1400000,1.7305e-10,
-1500000,1.9367e-10,
-1600000,2.1492e-10,
-1700000,2.1335e-10,
-1800000,1.9672e-10,
-1900000,1.6887e-10,
-2000000,1.5186e-10,
-2100000,1.4809e-10,
-2200000,1.5377e-10,
-2300000,1.6768e-10,
-2400000,1.8655e-10,
-2500000,2.0785e-10,
-2600000,2.1236e-10,
-2700000,2.0561e-10,
-2800000,1.8684e-10,
-2900000,1.6402e-10,
-3000000,1.4845e-10,
-3100000,1.3873e-10,
-3200000,1.3261e-10,
-3300000,1.3152e-10,
-3400000,1.3205e-10,
-3500000,1.3212e-10,
-3600000,1.3303e-10,
-3700000,1.3121e-10,
-3800000,1.273e-10,
-3900000,1.2237e-10,
-4000000,1.1757e-10,
-4100000,1.1004e-10,
-4200000,1.0586e-10,
-4300000,1.0173e-10,
-4400000,9.9283e-11,
-4500000,9.5798e-11,
-4600000,9.3372e-11,
-4700000,9.22e-11,
-4800000,9.081e-11,
-4900000,9.0563e-11,
-5000000,8.716e-11,
-5100000,8.724e-11,
-5200000,8.6108e-11,
-5300000,8.3597e-11,
-5400000,8.4265e-11,
-5500000,8.1923e-11,
-5600000,8.1367e-11,
-5700000,7.9952e-11,
-5800000,8.0151e-11,
-5900000,7.8572e-11,
-6000000,7.7772e-11,
-5950000,7.824e-11,
-5850000,7.9139e-11,
-5750000,7.9721e-11,
-5650000,8.0067e-11,
-5550000,8.135e-11,
-5450000,8.2745e-11,
-5350000,8.4805e-11,
-5250000,8.4955e-11,
-5150000,8.6608e-11,
-5050000,8.7922e-11,
-4950000,8.9132e-11,
-4850000,8.9689e-11,
-4750000,9.1208e-11,
-4650000,9.2632e-11,
-4550000,9.4767e-11,
-4450000,9.7699e-11,
-4350000,9.9905e-11,
-4250000,1.0302e-10,
-4150000,1.0816e-10,
-4050000,1.1409e-10,
-3950000,1.2006e-10,
-3850000,1.2466e-10,
-3750000,1.278e-10,
-3650000,1.3025e-10,
-3550000,1.3217e-10,
-3450000,1.3202e-10,
-3350000,1.3145e-10,
-3250000,1.3249e-10,
-3150000,1.3605e-10,
-3050000,1.4346e-10,
-2950000,1.5552e-10,
-2850000,1.7354e-10,
-2750000,1.9779e-10,
-2650000,2.1318e-10,
-2550000,2.1196e-10,
-2450000,1.979e-10,
-2350000,1.7501e-10,
-2250000,1.5854e-10,
-2150000,1.503e-10,
-2050000,1.4971e-10,
-1950000,1.5975e-10,
-1850000,1.8418e-10,
-1750000,2.0807e-10,
-1650000,2.1737e-10,
-1550000,2.084e-10,
-1450000,1.8665e-10,
-1350000,1.6946e-10,
-1250000,1.6343e-10,
-1150000,1.72e-10,
-1050000,2.024e-10,
-950000,2.5211e-10,
-850000,3.2776e-10,
-750000,3.5684e-10,
-650000,3.2026e-10,
-550000,2.447e-10,
-450000,1.9562e-10,
-350000,1.7238e-10,
-250000,1.6386e-10,
-150000,1.6699e-10,
-50000,1.7623e-10,
