General parameters:
Start time: 2024              1              9             17             32      47.540648
Finish time: 2024              1              9             17             57      46.738327
Dwell time (ms): 3750.000000
Source chamber pressure: Error-S
Differential chamber pressure: 1.01e-03
Sample chamber pressure: 1.59e-08
Example position (nm): -3657000.000000,-1040000.000000,-750000.000000
Rotation angle (udeg): 137499935.000000
==========
Instrument status: 
0:Data Directory:/icon/data/2023_12_defect1_repeat_5um_hbn_sub/
1:Sample:MoS2
2:Comments:no
3:PinholePlate:#C13
4:z_Zero:4200
5:Operator:djw77/nav31/kw570
==========
zscan inputs: 
z_sep:50000
z_range:0 -6000000
data_path:/icon/data/2023_12_defect1_repeat_5um_hbn_sub/
example_pos:-3657000 -1040000  -750000
N_dwell:250
sampling_period:15
make_plots:1
m1:0.9867
m2:-0.008
example_pos_norm_1:-3675000  -950000  -750000
example_pos_norm_2:-3699000 -1052000  -750000
==========
Detector params:
Sampling period (ms): 15.000000
N dwell: 250.000000
Filament current (A): 1.540000
Filament emission (mA): 3.403584
Solenoid current (A): NaN
Solenoid shim current (A): NaN
Lens params:
0  685
1  300
2  125
3      -0.002
4       -0.01
5       0.012
6         0.8
7         2.1
8         2.8
9  3500
10  1400
11         0.85
12   0
==========
Data:
z(nm),I(A)
0,1.6064e-10,
-100000,1.5378e-10,
-200000,1.5084e-10,
-300000,1.5614e-10,
-400000,1.746e-10,
-500000,2.217e-10,
-600000,3.1907e-10,
-700000,4.1037e-10,
-800000,4.1996e-10,
-900000,3.2574e-10,
-1000000,2.2851e-10,
-1100000,1.8066e-10,
-1200000,1.6366e-10,
-1300000,1.6708e-10,
-1400000,2.0049e-10,
-1500000,2.6474e-10,
-1600000,3.0235e-10,
-1700000,3.0274e-10,
-1800000,2.6594e-10,
-1900000,2.0392e-10,
-2000000,1.6108e-10,
-2100000,1.5377e-10,
-2200000,1.7344e-10,
-2300000,2.2553e-10,
-2400000,3.0289e-10,
-2500000,3.7544e-10,
-2600000,4.0407e-10,
-2700000,3.8433e-10,
-2800000,3.2314e-10,
-2900000,2.3863e-10,
-3000000,1.7979e-10,
-3100000,1.5169e-10,
-3200000,1.4246e-10,
-3300000,1.4679e-10,
-3400000,1.6199e-10,
-3500000,1.7927e-10,
-3600000,1.9506e-10,
-3700000,2.0204e-10,
-3800000,1.9536e-10,
-3900000,1.7881e-10,
-4000000,1.5372e-10,
-4100000,1.3293e-10,
-4200000,1.161e-10,
-4300000,1.0424e-10,
-4400000,9.65e-11,
-4500000,9.2925e-11,
-4600000,8.8816e-11,
-4700000,8.8711e-11,
-4800000,8.8496e-11,
-4900000,8.73e-11,
-5000000,8.7415e-11,
-5100000,8.8022e-11,
-5200000,8.6293e-11,
-5300000,8.5204e-11,
-5400000,8.2786e-11,
-5500000,8.1298e-11,
-5600000,7.8232e-11,
-5700000,7.6818e-11,
-5800000,7.5276e-11,
-5900000,7.3841e-11,
-6000000,7.3453e-11,
-5950000,7.2328e-11,
-5850000,7.4528e-11,
-5750000,7.6096e-11,
-5650000,7.8158e-11,
-5550000,7.9484e-11,
-5450000,8.1558e-11,
-5350000,8.3357e-11,
-5250000,8.4619e-11,
-5150000,8.681e-11,
-5050000,8.6319e-11,
-4950000,8.7418e-11,
-4850000,8.7908e-11,
-4750000,8.8135e-11,
-4650000,8.912e-11,
-4550000,9.1369e-11,
-4450000,9.4006e-11,
-4350000,9.9903e-11,
-4250000,1.077e-10,
-4150000,1.2206e-10,
-4050000,1.4227e-10,
-3950000,1.6445e-10,
-3850000,1.8727e-10,
-3750000,2.0053e-10,
-3650000,2.0048e-10,
-3550000,1.8944e-10,
-3450000,1.7278e-10,
-3350000,1.5558e-10,
-3250000,1.4506e-10,
-3150000,1.436e-10,
-3050000,1.598e-10,
-2950000,2.0052e-10,
-2850000,2.7171e-10,
-2750000,3.4898e-10,
-2650000,3.9439e-10,
-2550000,3.9604e-10,
-2450000,3.4841e-10,
-2350000,2.691e-10,
-2250000,2.0132e-10,
-2150000,1.6372e-10,
-2050000,1.5351e-10,
-1950000,1.7285e-10,
-1850000,2.2887e-10,
-1750000,2.8297e-10,
-1650000,3.0702e-10,
-1550000,2.9165e-10,
-1450000,2.36e-10,
-1350000,1.8301e-10,
-1250000,1.628e-10,
-1150000,1.6779e-10,
-1050000,1.9623e-10,
-950000,2.6111e-10,
-850000,3.7734e-10,
-750000,4.2386e-10,
-650000,3.7822e-10,
-550000,2.7019e-10,
-450000,1.9714e-10,
-350000,1.6425e-10,
-250000,1.5359e-10,
-150000,1.5164e-10,
-50000,1.5508e-10,
