General parameters:
Start time: 2023             12             26             18              6      42.186313
Finish time: 2023             12             26             18             23      22.165158
Dwell time (ms): 3750.000000
Source chamber pressure: Error-S
Differential chamber pressure: 1.09e-03
Sample chamber pressure: 1.54e-08
Example position (nm): -3321000.000000,-1216000.000000,-750000.000000
Rotation angle (udeg): 100000055.000000
==========
Instrument status: 
0:Data Directory:/icon/data/2023_12_defect1_repeat_5um_hbn_sub/
1:Sample:MoS2
2:Comments:no
3:PinholePlate:#C13
4:z_Zero:4200
5:Operator:djw77/nav31/kw570
==========
zscan inputs: 
z_sep:50000
z_range:0 -6000000
data_path:/icon/data/2023_12_defect1_repeat_5um_hbn_sub/
example_pos:-3321000 -1216000  -750000
N_dwell:250
sampling_period:15
make_plots:1
m1:0.9867
m2:-0.008
example_pos_norm_1:-3250000 -1150000  -750000
==========
Detector params:
Sampling period (ms): 15.000000
N dwell: 250.000000
Filament current (A): 1.540000
Filament emission (mA): 3.314664
Solenoid current (A): NaN
Solenoid shim current (A): NaN
Lens params:
0  685
1  300
2  125
3      -0.002
4       -0.01
5       0.012
6         0.8
7         2.1
8         2.8
9  3500
10  1400
11         0.85
12   0
==========
Data:
z(nm),I(A)
0,1.9492e-10,
-100000,1.7817e-10,
-200000,1.6774e-10,
-300000,1.6435e-10,
-400000,1.7366e-10,
-500000,2.0563e-10,
-600000,2.7365e-10,
-700000,3.9101e-10,
-800000,4.6002e-10,
-900000,4.6619e-10,
-1000000,3.8703e-10,
-1100000,2.735e-10,
-1200000,2.0819e-10,
-1300000,1.7943e-10,
-1400000,1.6647e-10,
-1500000,1.6144e-10,
-1600000,1.6098e-10,
-1700000,1.609e-10,
-1800000,1.5737e-10,
-1900000,1.534e-10,
-2000000,1.5156e-10,
-2100000,1.5214e-10,
-2200000,1.5537e-10,
-2300000,1.6079e-10,
-2400000,1.5932e-10,
-2500000,1.5423e-10,
-2600000,1.4663e-10,
-2700000,1.3837e-10,
-2800000,1.324e-10,
-2900000,1.3127e-10,
-3000000,1.3276e-10,
-3100000,1.3628e-10,
-3200000,1.4201e-10,
-3300000,1.4599e-10,
-3400000,1.493e-10,
-3500000,1.4391e-10,
-3600000,1.3523e-10,
-3700000,1.2587e-10,
-3800000,1.1852e-10,
-3900000,1.1153e-10,
-4000000,1.0587e-10,
-4100000,1.0428e-10,
-4200000,1.016e-10,
-4300000,9.9709e-11,
-4400000,9.9047e-11,
-4500000,9.751e-11,
-4600000,9.6625e-11,
-4700000,9.4776e-11,
-4800000,9.356e-11,
-4900000,9.25e-11,
-5000000,9.0937e-11,
-5100000,9.0111e-11,
-5200000,8.8371e-11,
-5300000,8.7011e-11,
-5400000,8.4332e-11,
-5500000,8.482e-11,
-5600000,8.4641e-11,
-5700000,8.2486e-11,
-5800000,8.1866e-11,
-5900000,8.1551e-11,
-6000000,7.9977e-11,
-5950000,8.0579e-11,
-5850000,8.2057e-11,
-5750000,8.2253e-11,
-5650000,8.3131e-11,
-5550000,8.4726e-11,
-5450000,8.424e-11,
-5350000,8.617e-11,
-5250000,8.8689e-11,
-5150000,8.8662e-11,
-5050000,9.036e-11,
-4950000,9.1679e-11,
-4850000,9.235e-11,
-4750000,9.464e-11,
-4650000,9.5015e-11,
-4550000,9.7409e-11,
-4450000,9.7662e-11,
-4350000,9.8898e-11,
-4250000,1.0017e-10,
-4150000,1.0212e-10,
-4050000,1.0428e-10,
-3950000,1.083e-10,
-3850000,1.1426e-10,
-3750000,1.222e-10,
-3650000,1.3004e-10,
-3550000,1.3898e-10,
-3450000,1.4656e-10,
-3350000,1.4717e-10,
-3250000,1.428e-10,
-3150000,1.3943e-10,
-3050000,1.3474e-10,
-2950000,1.3279e-10,
-2850000,1.3245e-10,
-2750000,1.3704e-10,
-2650000,1.4169e-10,
-2550000,1.5073e-10,
-2450000,1.558e-10,
-2350000,1.5852e-10,
-2250000,1.5801e-10,
-2150000,1.5385e-10,
-2050000,1.4994e-10,
-1950000,1.5283e-10,
-1850000,1.5707e-10,
-1750000,1.5989e-10,
-1650000,1.6172e-10,
-1550000,1.6097e-10,
-1450000,1.6355e-10,
-1350000,1.7239e-10,
-1250000,1.9055e-10,
-1150000,2.3165e-10,
-1050000,3.2494e-10,
-950000,4.3776e-10,
-850000,4.7045e-10,
-750000,4.2906e-10,
-650000,3.27e-10,
-550000,2.3369e-10,
-450000,1.8606e-10,
-350000,1.6729e-10,
-250000,1.6416e-10,
-150000,1.7285e-10,
-50000,1.8391e-10,
