General parameters:
Start time: 2024              1              5             19             25       7.870923
Finish time: 2024              1              5             19             50       4.439989
Dwell time (ms): 3750.000000
Source chamber pressure: Error-S
Differential chamber pressure: 1.06e-03
Sample chamber pressure: 1.60e-08
Example position (nm): -3516000.000000,-1145000.000000,-750000.000000
Rotation angle (udeg): 120000050.000000
==========
Instrument status: 
0:Data Directory:/icon/data/2023_12_defect1_repeat_5um_hbn_sub/
1:Sample:MoS2
2:Comments:no
3:PinholePlate:#C13
4:z_Zero:4200
5:Operator:djw77/nav31/kw570
==========
zscan inputs: 
z_sep:50000
z_range:0 -6000000
data_path:/icon/data/2023_12_defect1_repeat_5um_hbn_sub/
example_pos:-3516000 -1145000  -750000
N_dwell:250
sampling_period:15
make_plots:1
m1:0.9867
m2:-0.008
example_pos_norm_1:-3575000 -1100000  -750000
example_pos_norm_2:-3547000 -1177000  -750000
==========
Detector params:
Sampling period (ms): 15.000000
N dwell: 250.000000
Filament current (A): 1.540000
Filament emission (mA): 3.375882
Solenoid current (A): NaN
Solenoid shim current (A): NaN
Lens params:
0  685
1  300
2  125
3      -0.002
4       -0.01
5       0.012
6         0.8
7         2.1
8         2.8
9  3500
10  1400
11         0.85
12   0
==========
Data:
z(nm),I(A)
0,1.4408e-10,
-100000,1.439e-10,
-200000,1.4648e-10,
-300000,1.5296e-10,
-400000,1.6859e-10,
-500000,2.0439e-10,
-600000,2.7413e-10,
-700000,3.815e-10,
-800000,4.3174e-10,
-900000,4.1077e-10,
-1000000,3.1918e-10,
-1100000,2.347e-10,
-1200000,1.8895e-10,
-1300000,1.6903e-10,
-1400000,1.649e-10,
-1500000,1.7163e-10,
-1600000,1.7952e-10,
-1700000,1.7547e-10,
-1800000,1.6045e-10,
-1900000,1.4552e-10,
-2000000,1.3643e-10,
-2100000,1.352e-10,
-2200000,1.3807e-10,
-2300000,1.4306e-10,
-2400000,1.4314e-10,
-2500000,1.4384e-10,
-2600000,1.407e-10,
-2700000,1.3534e-10,
-2800000,1.3376e-10,
-2900000,1.3609e-10,
-3000000,1.4161e-10,
-3100000,1.5242e-10,
-3200000,1.6623e-10,
-3300000,1.7488e-10,
-3400000,1.7607e-10,
-3500000,1.6861e-10,
-3600000,1.526e-10,
-3700000,1.3559e-10,
-3800000,1.2023e-10,
-3900000,1.0949e-10,
-4000000,1.0229e-10,
-4100000,9.9183e-11,
-4200000,9.72e-11,
-4300000,9.5696e-11,
-4400000,9.2938e-11,
-4500000,9.1439e-11,
-4600000,9.0145e-11,
-4700000,8.9154e-11,
-4800000,8.7845e-11,
-4900000,8.56e-11,
-5000000,8.3584e-11,
-5100000,8.4211e-11,
-5200000,8.2019e-11,
-5300000,8.0859e-11,
-5400000,8.0622e-11,
-5500000,7.9258e-11,
-5600000,7.7739e-11,
-5700000,7.7552e-11,
-5800000,7.7795e-11,
-5900000,7.6799e-11,
-6000000,7.6884e-11,
-5950000,7.6522e-11,
-5850000,7.7106e-11,
-5750000,7.7955e-11,
-5650000,7.7753e-11,
-5550000,7.8488e-11,
-5450000,7.9363e-11,
-5350000,8.053e-11,
-5250000,8.2105e-11,
-5150000,8.2641e-11,
-5050000,8.3543e-11,
-4950000,8.4665e-11,
-4850000,8.6388e-11,
-4750000,8.92e-11,
-4650000,9.0202e-11,
-4550000,9.1213e-11,
-4450000,9.1846e-11,
-4350000,9.2584e-11,
-4250000,9.5084e-11,
-4150000,9.7005e-11,
-4050000,1.0063e-10,
-3950000,1.0571e-10,
-3850000,1.1503e-10,
-3750000,1.2725e-10,
-3650000,1.4353e-10,
-3550000,1.6106e-10,
-3450000,1.7416e-10,
-3350000,1.7898e-10,
-3250000,1.7308e-10,
-3150000,1.6126e-10,
-3050000,1.4946e-10,
-2950000,1.3971e-10,
-2850000,1.3336e-10,
-2750000,1.3534e-10,
-2650000,1.3899e-10,
-2550000,1.4213e-10,
-2450000,1.4493e-10,
-2350000,1.4418e-10,
-2250000,1.4067e-10,
-2150000,1.3634e-10,
-2050000,1.3677e-10,
-1950000,1.3968e-10,
-1850000,1.5157e-10,
-1750000,1.6801e-10,
-1650000,1.7934e-10,
-1550000,1.7681e-10,
-1450000,1.6891e-10,
-1350000,1.6447e-10,
-1250000,1.7569e-10,
-1150000,2.0449e-10,
-1050000,2.6515e-10,
-950000,3.6466e-10,
-850000,4.3038e-10,
-750000,4.1666e-10,
-650000,3.3501e-10,
-550000,2.4144e-10,
-450000,1.8708e-10,
-350000,1.6075e-10,
-250000,1.5025e-10,
-150000,1.4544e-10,
-50000,1.4431e-10,
