General parameters:
Start time: 2023             12             28             16             32        58.1751
Finish time: 2023             12             28             16             49      36.455741
Dwell time (ms): 3750.000000
Source chamber pressure: Error-S
Differential chamber pressure: 1.05e-03
Sample chamber pressure: 1.62e-08
Example position (nm): -3559000.000000,-1118000.000000,-750000.000000
Rotation angle (udeg): 124999955.000000
==========
Instrument status: 
0:Data Directory:/icon/data/2023_12_defect1_repeat_5um_hbn_sub/
1:Sample:MoS2
2:Comments:no
3:PinholePlate:#C13
4:z_Zero:4200
5:Operator:djw77/nav31/kw570
==========
zscan inputs: 
z_sep:50000
z_range:0 -6000000
data_path:/icon/data/2023_12_defect1_repeat_5um_hbn_sub/
example_pos:-3559000 -1118000  -750000
N_dwell:250
sampling_period:15
make_plots:1
m1:0.9867
m2:-0.008
example_pos_norm_1:-3475000 -1100000  -750000
==========
Detector params:
Sampling period (ms): 15.000000
N dwell: 250.000000
Filament current (A): 1.540000
Filament emission (mA): 3.321504
Solenoid current (A): NaN
Solenoid shim current (A): NaN
Lens params:
0  685
1  300
2  125
3      -0.002
4       -0.01
5       0.012
6         0.8
7         2.1
8         2.8
9  3500
10  1400
11         0.85
12   0
==========
Data:
z(nm),I(A)
0,1.4698e-10,
-100000,1.4715e-10,
-200000,1.4699e-10,
-300000,1.5485e-10,
-400000,1.6943e-10,
-500000,2.0568e-10,
-600000,2.7401e-10,
-700000,3.7039e-10,
-800000,4.0773e-10,
-900000,3.763e-10,
-1000000,2.8724e-10,
-1100000,2.1861e-10,
-1200000,1.8278e-10,
-1300000,1.7085e-10,
-1400000,1.7773e-10,
-1500000,1.9944e-10,
-1600000,2.2167e-10,
-1700000,2.2127e-10,
-1800000,1.9958e-10,
-1900000,1.6722e-10,
-2000000,1.4665e-10,
-2100000,1.3828e-10,
-2200000,1.3667e-10,
-2300000,1.4002e-10,
-2400000,1.4298e-10,
-2500000,1.445e-10,
-2600000,1.4396e-10,
-2700000,1.4118e-10,
-2800000,1.3912e-10,
-2900000,1.3744e-10,
-3000000,1.4047e-10,
-3100000,1.4521e-10,
-3200000,1.5079e-10,
-3300000,1.5528e-10,
-3400000,1.5472e-10,
-3500000,1.4853e-10,
-3600000,1.3668e-10,
-3700000,1.2682e-10,
-3800000,1.1868e-10,
-3900000,1.1174e-10,
-4000000,1.0795e-10,
-4100000,1.0529e-10,
-4200000,1.0572e-10,
-4300000,1.0449e-10,
-4400000,1.0536e-10,
-4500000,1.0626e-10,
-4600000,1.0595e-10,
-4700000,1.044e-10,
-4800000,1.0179e-10,
-4900000,9.911e-11,
-5000000,9.495e-11,
-5100000,9.2456e-11,
-5200000,8.8315e-11,
-5300000,8.605e-11,
-5400000,8.3397e-11,
-5500000,8.1876e-11,
-5600000,7.9927e-11,
-5700000,7.9626e-11,
-5800000,7.7836e-11,
-5900000,7.6901e-11,
-6000000,7.6677e-11,
-5950000,7.7176e-11,
-5850000,7.7778e-11,
-5750000,7.7882e-11,
-5650000,7.9256e-11,
-5550000,8.115e-11,
-5450000,8.1795e-11,
-5350000,8.4994e-11,
-5250000,8.6776e-11,
-5150000,9.0748e-11,
-5050000,9.359e-11,
-4950000,9.6903e-11,
-4850000,1.0089e-10,
-4750000,1.0338e-10,
-4650000,1.0441e-10,
-4550000,1.0525e-10,
-4450000,1.0679e-10,
-4350000,1.0519e-10,
-4250000,1.0364e-10,
-4150000,1.0492e-10,
-4050000,1.0593e-10,
-3950000,1.0859e-10,
-3850000,1.1306e-10,
-3750000,1.2097e-10,
-3650000,1.2971e-10,
-3550000,1.4084e-10,
-3450000,1.5089e-10,
-3350000,1.5367e-10,
-3250000,1.5125e-10,
-3150000,1.4608e-10,
-3050000,1.4143e-10,
-2950000,1.3716e-10,
-2850000,1.379e-10,
-2750000,1.3965e-10,
-2650000,1.4255e-10,
-2550000,1.4584e-10,
-2450000,1.448e-10,
-2350000,1.4069e-10,
-2250000,1.3824e-10,
-2150000,1.3738e-10,
-2050000,1.4099e-10,
-1950000,1.5472e-10,
-1850000,1.8247e-10,
-1750000,2.1265e-10,
-1650000,2.2671e-10,
-1550000,2.1378e-10,
-1450000,1.8767e-10,
-1350000,1.7065e-10,
-1250000,1.7267e-10,
-1150000,1.9569e-10,
-1050000,2.4808e-10,
-950000,3.3811e-10,
-850000,4.0716e-10,
-750000,3.9978e-10,
-650000,3.2777e-10,
-550000,2.357e-10,
-450000,1.8518e-10,
-350000,1.6244e-10,
-250000,1.5104e-10,
-150000,1.4714e-10,
-50000,1.4628e-10,
