General parameters:
Start time: 2024              1              4             18              5      40.042963
Finish time: 2024              1              4             18             30      34.090486
Dwell time (ms): 3750.000000
Source chamber pressure: Error-S
Differential chamber pressure: 1.05e-03
Sample chamber pressure: 1.64e-08
Example position (nm): -3168000.000000,-1224000.000000,-750000.000000
Rotation angle (udeg): 84999925.000000
==========
Instrument status: 
0:Data Directory:/icon/data/2023_12_defect1_repeat_5um_hbn_sub/
1:Sample:MoS2
2:Comments:no
3:PinholePlate:#C13
4:z_Zero:4200
5:Operator:djw77/nav31/kw570
==========
zscan inputs: 
z_sep:50000
z_range:0 -6000000
data_path:/icon/data/2023_12_defect1_repeat_5um_hbn_sub/
example_pos:-3168000 -1224000  -750000
N_dwell:250
sampling_period:15
make_plots:1
m1:0.9867
m2:-0.008
example_pos_norm_1:-3250000 -1225000  -750000
example_pos_norm_2:-3185000 -1265000  -750000
==========
Detector params:
Sampling period (ms): 15.000000
N dwell: 250.000000
Filament current (A): 1.540000
Filament emission (mA): 3.367674
Solenoid current (A): NaN
Solenoid shim current (A): NaN
Lens params:
0  685
1  300
2  125
3      -0.002
4       -0.01
5       0.012
6         0.8
7         2.1
8         2.8
9  3500
10  1400
11         0.85
12   0
==========
Data:
z(nm),I(A)
0,2.3395e-10,
-100000,1.9889e-10,
-200000,1.7624e-10,
-300000,1.6549e-10,
-400000,1.6856e-10,
-500000,1.9592e-10,
-600000,2.6564e-10,
-700000,3.8269e-10,
-800000,4.5812e-10,
-900000,4.647e-10,
-1000000,3.9976e-10,
-1100000,2.9073e-10,
-1200000,2.1947e-10,
-1300000,1.8882e-10,
-1400000,1.8465e-10,
-1500000,2.0754e-10,
-1600000,2.4806e-10,
-1700000,2.7617e-10,
-1800000,2.7781e-10,
-1900000,2.4989e-10,
-2000000,2.065e-10,
-2100000,1.6931e-10,
-2200000,1.5555e-10,
-2300000,1.6239e-10,
-2400000,1.8755e-10,
-2500000,2.2743e-10,
-2600000,2.7358e-10,
-2700000,2.9769e-10,
-2800000,2.9158e-10,
-2900000,2.5963e-10,
-3000000,2.1407e-10,
-3100000,1.6854e-10,
-3200000,1.4191e-10,
-3300000,1.2867e-10,
-3400000,1.2394e-10,
-3500000,1.2314e-10,
-3600000,1.2791e-10,
-3700000,1.2938e-10,
-3800000,1.3174e-10,
-3900000,1.3069e-10,
-4000000,1.2959e-10,
-4100000,1.198e-10,
-4200000,1.1264e-10,
-4300000,1.0413e-10,
-4400000,9.6901e-11,
-4500000,9.2984e-11,
-4600000,9.0124e-11,
-4700000,8.6854e-11,
-4800000,8.5174e-11,
-4900000,8.4494e-11,
-5000000,8.3672e-11,
-5100000,8.147e-11,
-5200000,8.0896e-11,
-5300000,8.0073e-11,
-5400000,7.874e-11,
-5500000,7.8896e-11,
-5600000,7.8639e-11,
-5700000,7.6551e-11,
-5800000,7.6446e-11,
-5900000,7.6132e-11,
-6000000,7.4459e-11,
-5950000,7.4302e-11,
-5850000,7.6149e-11,
-5750000,7.6552e-11,
-5650000,7.7961e-11,
-5550000,7.8807e-11,
-5450000,7.9192e-11,
-5350000,7.9592e-11,
-5250000,8.139e-11,
-5150000,8.1531e-11,
-5050000,8.3083e-11,
-4950000,8.3318e-11,
-4850000,8.4523e-11,
-4750000,8.6514e-11,
-4650000,8.8626e-11,
-4550000,9.0692e-11,
-4450000,9.4947e-11,
-4350000,9.9724e-11,
-4250000,1.0818e-10,
-4150000,1.1599e-10,
-4050000,1.2521e-10,
-3950000,1.3021e-10,
-3850000,1.3363e-10,
-3750000,1.3251e-10,
-3650000,1.2826e-10,
-3550000,1.2577e-10,
-3450000,1.2349e-10,
-3350000,1.2491e-10,
-3250000,1.3334e-10,
-3150000,1.5077e-10,
-3050000,1.8369e-10,
-2950000,2.3163e-10,
-2850000,2.7323e-10,
-2750000,2.9794e-10,
-2650000,2.9226e-10,
-2550000,2.5788e-10,
-2450000,2.1276e-10,
-2350000,1.7542e-10,
-2250000,1.5729e-10,
-2150000,1.5833e-10,
-2050000,1.8075e-10,
-1950000,2.2484e-10,
-1850000,2.6204e-10,
-1750000,2.7851e-10,
-1650000,2.6952e-10,
-1550000,2.2983e-10,
-1450000,1.9454e-10,
-1350000,1.8354e-10,
-1250000,1.9732e-10,
-1150000,2.4082e-10,
-1050000,3.324e-10,
-950000,4.3315e-10,
-850000,4.7437e-10,
-750000,4.3728e-10,
-650000,3.3317e-10,
-550000,2.3176e-10,
-450000,1.8009e-10,
-350000,1.6655e-10,
-250000,1.6659e-10,
-150000,1.8447e-10,
-50000,2.1351e-10,
