General parameters:
Start time: 2024              1             10             14             28        6.66018
Finish time: 2024              1             10             14             53       4.581021
Dwell time (ms): 3750.000000
Source chamber pressure: Error-S
Differential chamber pressure: 1.01e-03
Sample chamber pressure: 1.58e-08
Example position (nm): -3132000.000000,-1221000.000000,-750000.000000
Rotation angle (udeg): 79999875.000000
==========
Instrument status: 
0:Data Directory:/icon/data/2023_12_defect1_repeat_5um_hbn_sub/
1:Sample:MoS2
2:Comments:no
3:PinholePlate:#C13
4:z_Zero:4200
5:Operator:djw77/nav31/kw570
==========
zscan inputs: 
z_sep:50000
z_range:0 -6000000
data_path:/icon/data/2023_12_defect1_repeat_5um_hbn_sub/
example_pos:-3132000 -1221000  -750000
N_dwell:250
sampling_period:15
make_plots:1
m1:0.9867
m2:-0.008
example_pos_norm_1:-3200000 -1225000  -750000
example_pos_norm_2:-3142000 -1261000  -750000
==========
Detector params:
Sampling period (ms): 15.000000
N dwell: 250.000000
Filament current (A): 1.540000
Filament emission (mA): 3.418290
Solenoid current (A): NaN
Solenoid shim current (A): NaN
Lens params:
0  685
1  300
2  125
3      -0.002
4       -0.01
5       0.012
6         0.8
7         2.1
8         2.8
9  3500
10  1400
11         0.85
12   0
==========
Data:
z(nm),I(A)
0,2.255e-10,
-100000,1.9179e-10,
-200000,1.6744e-10,
-300000,1.5679e-10,
-400000,1.6474e-10,
-500000,2.0588e-10,
-600000,3.069e-10,
-700000,4.7267e-10,
-800000,5.4928e-10,
-900000,5.3478e-10,
-1000000,4.32e-10,
-1100000,2.8559e-10,
-1200000,2.0928e-10,
-1300000,1.854e-10,
-1400000,1.9104e-10,
-1500000,2.3066e-10,
-1600000,2.9451e-10,
-1700000,3.2881e-10,
-1800000,3.215e-10,
-1900000,2.7731e-10,
-2000000,2.1358e-10,
-2100000,1.6756e-10,
-2200000,1.5514e-10,
-2300000,1.6861e-10,
-2400000,2.1293e-10,
-2500000,2.777e-10,
-2600000,3.4373e-10,
-2700000,3.6465e-10,
-2800000,3.5128e-10,
-2900000,2.9039e-10,
-3000000,2.2048e-10,
-3100000,1.638e-10,
-3200000,1.3626e-10,
-3300000,1.2283e-10,
-3400000,1.2047e-10,
-3500000,1.2482e-10,
-3600000,1.3084e-10,
-3700000,1.3592e-10,
-3800000,1.3859e-10,
-3900000,1.3733e-10,
-4000000,1.3231e-10,
-4100000,1.2047e-10,
-4200000,1.095e-10,
-4300000,9.937e-11,
-4400000,9.3316e-11,
-4500000,8.7901e-11,
-4600000,8.5437e-11,
-4700000,8.3072e-11,
-4800000,8.1302e-11,
-4900000,7.9848e-11,
-5000000,7.8086e-11,
-5100000,7.7663e-11,
-5200000,7.5975e-11,
-5300000,7.4851e-11,
-5400000,7.5708e-11,
-5500000,7.6135e-11,
-5600000,7.3912e-11,
-5700000,7.3468e-11,
-5800000,7.2312e-11,
-5900000,6.9481e-11,
-6000000,6.986e-11,
-5950000,7.0045e-11,
-5850000,7.1594e-11,
-5750000,7.2975e-11,
-5650000,7.4296e-11,
-5550000,7.4425e-11,
-5450000,7.5407e-11,
-5350000,7.6492e-11,
-5250000,7.6277e-11,
-5150000,7.626e-11,
-5050000,7.745e-11,
-4950000,8.0083e-11,
-4850000,7.9685e-11,
-4750000,8.1834e-11,
-4650000,8.3739e-11,
-4550000,8.6575e-11,
-4450000,9.0772e-11,
-4350000,9.6257e-11,
-4250000,1.0397e-10,
-4150000,1.1554e-10,
-4050000,1.2738e-10,
-3950000,1.3517e-10,
-3850000,1.3974e-10,
-3750000,1.3726e-10,
-3650000,1.3568e-10,
-3550000,1.2873e-10,
-3450000,1.2348e-10,
-3350000,1.2113e-10,
-3250000,1.2836e-10,
-3150000,1.4621e-10,
-3050000,1.8404e-10,
-2950000,2.5168e-10,
-2850000,3.1779e-10,
-2750000,3.6328e-10,
-2650000,3.6409e-10,
-2550000,3.2063e-10,
-2450000,2.4731e-10,
-2350000,1.9091e-10,
-2250000,1.6016e-10,
-2150000,1.5654e-10,
-2050000,1.8204e-10,
-1950000,2.4441e-10,
-1850000,3.0283e-10,
-1750000,3.3146e-10,
-1650000,3.1915e-10,
-1550000,2.6894e-10,
-1450000,2.0909e-10,
-1350000,1.8473e-10,
-1250000,1.9205e-10,
-1150000,2.3553e-10,
-1050000,3.3658e-10,
-950000,4.9265e-10,
-850000,5.5373e-10,
-750000,5.3305e-10,
-650000,4.1526e-10,
-550000,2.5705e-10,
-450000,1.8339e-10,
-350000,1.6048e-10,
-250000,1.5935e-10,
-150000,1.7559e-10,
-50000,2.0469e-10,
