General parameters:
Start time: 2024              1              6             15             27      16.415121
Finish time: 2024              1              6             15             52        9.54952
Dwell time (ms): 3750.000000
Source chamber pressure: Error-S
Differential chamber pressure: 1.04e-03
Sample chamber pressure: 1.60e-08
Example position (nm): -3559000.000000,-1119000.000000,-750000.000000
Rotation angle (udeg): 125000045.000000
==========
Instrument status: 
0:Data Directory:/icon/data/2023_12_defect1_repeat_5um_hbn_sub/
1:Sample:MoS2
2:Comments:no
3:PinholePlate:#C13
4:z_Zero:4200
5:Operator:djw77/nav31/kw570
==========
zscan inputs: 
z_sep:50000
z_range:0 -6000000
data_path:/icon/data/2023_12_defect1_repeat_5um_hbn_sub/
example_pos:-3559000 -1119000  -750000
N_dwell:250
sampling_period:15
make_plots:1
m1:0.9867
m2:-0.008
example_pos_norm_1:-3625000 -1050000  -750000
example_pos_norm_2:-3598000 -1137000  -750000
==========
Detector params:
Sampling period (ms): 15.000000
N dwell: 250.000000
Filament current (A): 1.540000
Filament emission (mA): 3.383748
Solenoid current (A): NaN
Solenoid shim current (A): NaN
Lens params:
0  685
1  300
2  125
3      -0.002
4       -0.01
5       0.012
6         0.8
7         2.1
8         2.8
9  3500
10  1400
11         0.85
12   0
==========
Data:
z(nm),I(A)
0,1.4714e-10,
-100000,1.4736e-10,
-200000,1.476e-10,
-300000,1.546e-10,
-400000,1.7111e-10,
-500000,2.102e-10,
-600000,2.8345e-10,
-700000,3.8751e-10,
-800000,4.3097e-10,
-900000,4.0202e-10,
-1000000,3.0686e-10,
-1100000,2.2833e-10,
-1200000,1.8661e-10,
-1300000,1.7441e-10,
-1400000,1.7914e-10,
-1500000,2.0536e-10,
-1600000,2.3111e-10,
-1700000,2.3109e-10,
-1800000,2.0685e-10,
-1900000,1.724e-10,
-2000000,1.4789e-10,
-2100000,1.3755e-10,
-2200000,1.3677e-10,
-2300000,1.3898e-10,
-2400000,1.4396e-10,
-2500000,1.4577e-10,
-2600000,1.4561e-10,
-2700000,1.4179e-10,
-2800000,1.4071e-10,
-2900000,1.3923e-10,
-3000000,1.4174e-10,
-3100000,1.4833e-10,
-3200000,1.5564e-10,
-3300000,1.5932e-10,
-3400000,1.604e-10,
-3500000,1.5251e-10,
-3600000,1.4185e-10,
-3700000,1.2961e-10,
-3800000,1.1855e-10,
-3900000,1.1192e-10,
-4000000,1.0754e-10,
-4100000,1.0492e-10,
-4200000,1.0505e-10,
-4300000,1.0467e-10,
-4400000,1.0636e-10,
-4500000,1.074e-10,
-4600000,1.0664e-10,
-4700000,1.0598e-10,
-4800000,1.0337e-10,
-4900000,9.9804e-11,
-5000000,9.5428e-11,
-5100000,9.171e-11,
-5200000,8.8755e-11,
-5300000,8.5461e-11,
-5400000,8.3129e-11,
-5500000,8.0954e-11,
-5600000,7.804e-11,
-5700000,7.7405e-11,
-5800000,7.7228e-11,
-5900000,7.5828e-11,
-6000000,7.5134e-11,
-5950000,7.6307e-11,
-5850000,7.5847e-11,
-5750000,7.7314e-11,
-5650000,7.8599e-11,
-5550000,7.8715e-11,
-5450000,8.0955e-11,
-5350000,8.4962e-11,
-5250000,8.6224e-11,
-5150000,8.9382e-11,
-5050000,9.3072e-11,
-4950000,9.6887e-11,
-4850000,1.0092e-10,
-4750000,1.0376e-10,
-4650000,1.0637e-10,
-4550000,1.076e-10,
-4450000,1.0627e-10,
-4350000,1.0681e-10,
-4250000,1.0537e-10,
-4150000,1.0569e-10,
-4050000,1.0717e-10,
-3950000,1.11e-10,
-3850000,1.1567e-10,
-3750000,1.2237e-10,
-3650000,1.331e-10,
-3550000,1.4786e-10,
-3450000,1.5736e-10,
-3350000,1.6105e-10,
-3250000,1.5801e-10,
-3150000,1.5176e-10,
-3050000,1.452e-10,
-2950000,1.3947e-10,
-2850000,1.3935e-10,
-2750000,1.4207e-10,
-2650000,1.454e-10,
-2550000,1.4614e-10,
-2450000,1.4576e-10,
-2350000,1.4253e-10,
-2250000,1.3894e-10,
-2150000,1.3724e-10,
-2050000,1.4177e-10,
-1950000,1.5511e-10,
-1850000,1.8523e-10,
-1750000,2.1734e-10,
-1650000,2.3327e-10,
-1550000,2.1949e-10,
-1450000,1.9478e-10,
-1350000,1.747e-10,
-1250000,1.7788e-10,
-1150000,2.004e-10,
-1050000,2.5446e-10,
-950000,3.4899e-10,
-850000,4.2087e-10,
-750000,4.2026e-10,
-650000,3.4845e-10,
-550000,2.4786e-10,
-450000,1.8852e-10,
-350000,1.6238e-10,
-250000,1.5156e-10,
-150000,1.4684e-10,
-50000,1.4706e-10,
