General parameters:
Start time: 2024              1              9             15             34      10.759302
Finish time: 2024              1              9             15             59       2.220122
Dwell time (ms): 3750.000000
Source chamber pressure: Error-S
Differential chamber pressure: 1.03e-03
Sample chamber pressure: 1.60e-08
Example position (nm): -3656000.000000,-1018000.000000,-750000.000000
Rotation angle (udeg): 139999955.000000
==========
Instrument status: 
0:Data Directory:/icon/data/2023_12_defect1_repeat_5um_hbn_sub/
1:Sample:MoS2
2:Comments:no
3:PinholePlate:#C13
4:z_Zero:4200
5:Operator:djw77/nav31/kw570
==========
zscan inputs: 
z_sep:50000
z_range:0 -6000000
data_path:/icon/data/2023_12_defect1_repeat_5um_hbn_sub/
example_pos:-3656000 -1018000  -750000
N_dwell:250
sampling_period:15
make_plots:1
m1:0.9867
m2:-0.008
example_pos_norm_1:-3675000  -940000  -750000
example_pos_norm_2:-3673000  -995500  -750000
==========
Detector params:
Sampling period (ms): 15.000000
N dwell: 250.000000
Filament current (A): 1.540000
Filament emission (mA): 3.399822
Solenoid current (A): NaN
Solenoid shim current (A): NaN
Lens params:
0  685
1  300
2  125
3      -0.002
4       -0.01
5       0.012
6         0.8
7         2.1
8         2.8
9  3500
10  1400
11         0.85
12   0
==========
Data:
z(nm),I(A)
0,1.762e-10,
-100000,1.7058e-10,
-200000,1.6701e-10,
-300000,1.7189e-10,
-400000,1.8856e-10,
-500000,2.3025e-10,
-600000,3.0639e-10,
-700000,3.8474e-10,
-800000,3.9866e-10,
-900000,3.3294e-10,
-1000000,2.5066e-10,
-1100000,2.04e-10,
-1200000,1.7924e-10,
-1300000,1.7859e-10,
-1400000,1.986e-10,
-1500000,2.3949e-10,
-1600000,2.7246e-10,
-1700000,2.7676e-10,
-1800000,2.5051e-10,
-1900000,2.0464e-10,
-2000000,1.679e-10,
-2100000,1.5953e-10,
-2200000,1.7225e-10,
-2300000,2.0918e-10,
-2400000,2.605e-10,
-2500000,3.1744e-10,
-2600000,3.4544e-10,
-2700000,3.3386e-10,
-2800000,2.9285e-10,
-2900000,2.3041e-10,
-3000000,1.8493e-10,
-3100000,1.5897e-10,
-3200000,1.4773e-10,
-3300000,1.5013e-10,
-3400000,1.5963e-10,
-3500000,1.7241e-10,
-3600000,1.8466e-10,
-3700000,1.8847e-10,
-3800000,1.8688e-10,
-3900000,1.7591e-10,
-4000000,1.5787e-10,
-4100000,1.3729e-10,
-4200000,1.2216e-10,
-4300000,1.0979e-10,
-4400000,1.0196e-10,
-4500000,9.672e-11,
-4600000,9.4995e-11,
-4700000,9.2942e-11,
-4800000,9.1779e-11,
-4900000,9.0964e-11,
-5000000,9.0447e-11,
-5100000,9.0731e-11,
-5200000,8.9948e-11,
-5300000,8.953e-11,
-5400000,8.8195e-11,
-5500000,8.525e-11,
-5600000,8.0722e-11,
-5700000,8.0945e-11,
-5800000,7.9032e-11,
-5900000,7.6828e-11,
-6000000,7.458e-11,
-5950000,7.5896e-11,
-5850000,7.8578e-11,
-5750000,8.0386e-11,
-5650000,8.2586e-11,
-5550000,8.026e-11,
-5450000,8.7596e-11,
-5350000,8.8601e-11,
-5250000,9.1041e-11,
-5150000,9.0881e-11,
-5050000,9.1391e-11,
-4950000,9.1397e-11,
-4850000,9.1502e-11,
-4750000,9.1446e-11,
-4650000,9.3034e-11,
-4550000,9.5506e-11,
-4450000,9.9006e-11,
-4350000,1.0611e-10,
-4250000,1.1543e-10,
-4150000,1.303e-10,
-4050000,1.4887e-10,
-3950000,1.6814e-10,
-3850000,1.8255e-10,
-3750000,1.9049e-10,
-3650000,1.8753e-10,
-3550000,1.7925e-10,
-3450000,1.6646e-10,
-3350000,1.5371e-10,
-3250000,1.4734e-10,
-3150000,1.5163e-10,
-3050000,1.6919e-10,
-2950000,2.0365e-10,
-2850000,2.6056e-10,
-2750000,3.1416e-10,
-2650000,3.4079e-10,
-2550000,3.3545e-10,
-2450000,2.9233e-10,
-2350000,2.3216e-10,
-2250000,1.8797e-10,
-2150000,1.6332e-10,
-2050000,1.6173e-10,
-1950000,1.8189e-10,
-1850000,2.2708e-10,
-1750000,2.6685e-10,
-1650000,2.7771e-10,
-1550000,2.6061e-10,
-1450000,2.1784e-10,
-1350000,1.8592e-10,
-1250000,1.7699e-10,
-1150000,1.8832e-10,
-1050000,2.2355e-10,
-950000,2.87e-10,
-850000,3.7426e-10,
-750000,4.0248e-10,
-650000,3.5715e-10,
-550000,2.6666e-10,
-450000,2.0831e-10,
-350000,1.8311e-10,
-250000,1.7258e-10,
-150000,1.6938e-10,
-50000,1.7731e-10,
