General parameters:
Start time: 2024              1              8             18             24      54.879316
Finish time: 2024              1              8             18             49      47.656498
Dwell time (ms): 3750.000000
Source chamber pressure: Error-S
Differential chamber pressure: 1.02e-03
Sample chamber pressure: 1.60e-08
Example position (nm): -3775000.000000,-718500.000000,-750000.000000
Rotation angle (udeg): 174999950.000000
==========
Instrument status: 
0:Data Directory:/icon/data/2023_12_defect1_repeat_5um_hbn_sub/
1:Sample:MoS2
2:Comments:no
3:PinholePlate:#C13
4:z_Zero:4200
5:Operator:djw77/nav31/kw570
==========
zscan inputs: 
z_sep:50000
z_range:0 -6000000
data_path:/icon/data/2023_12_defect1_repeat_5um_hbn_sub/
example_pos:-3775000  -718500  -750000
N_dwell:250
sampling_period:15
make_plots:1
m1:0.9867
m2:-0.008
example_pos_norm_1:-3775000  -650000  -750000
example_pos_norm_2:-3813000  -702800  -750000
==========
Detector params:
Sampling period (ms): 15.000000
N dwell: 250.000000
Filament current (A): 1.540000
Filament emission (mA): 3.396744
Solenoid current (A): NaN
Solenoid shim current (A): NaN
Lens params:
0  685
1  300
2  125
3      -0.002
4       -0.01
5       0.012
6         0.8
7         2.1
8         2.8
9  3500
10  1400
11         0.85
12   0
==========
Data:
z(nm),I(A)
0,1.3933e-10,
-100000,1.424e-10,
-200000,1.4959e-10,
-300000,1.6731e-10,
-400000,2.041e-10,
-500000,2.6678e-10,
-600000,3.359e-10,
-700000,3.4765e-10,
-800000,2.9582e-10,
-900000,2.3284e-10,
-1000000,1.9349e-10,
-1100000,1.7379e-10,
-1200000,1.6703e-10,
-1300000,1.6882e-10,
-1400000,1.7474e-10,
-1500000,1.7361e-10,
-1600000,1.6334e-10,
-1700000,1.5182e-10,
-1800000,1.454e-10,
-1900000,1.4566e-10,
-2000000,1.517e-10,
-2100000,1.5941e-10,
-2200000,1.618e-10,
-2300000,1.5985e-10,
-2400000,1.4955e-10,
-2500000,1.3639e-10,
-2600000,1.2629e-10,
-2700000,1.2098e-10,
-2800000,1.1943e-10,
-2900000,1.2318e-10,
-3000000,1.2651e-10,
-3100000,1.2708e-10,
-3200000,1.2566e-10,
-3300000,1.2035e-10,
-3400000,1.1309e-10,
-3500000,1.0743e-10,
-3600000,1.0218e-10,
-3700000,9.8236e-11,
-3800000,9.579e-11,
-3900000,9.3855e-11,
-4000000,9.3372e-11,
-4100000,9.1966e-11,
-4200000,8.8452e-11,
-4300000,8.7928e-11,
-4400000,8.5122e-11,
-4500000,8.4113e-11,
-4600000,8.1754e-11,
-4700000,8.1081e-11,
-4800000,7.9238e-11,
-4900000,7.7045e-11,
-5000000,7.6519e-11,
-5100000,7.6581e-11,
-5200000,7.507e-11,
-5300000,7.4311e-11,
-5400000,7.4067e-11,
-5500000,7.247e-11,
-5600000,7.1275e-11,
-5700000,7.1729e-11,
-5800000,7.2065e-11,
-5900000,7.0593e-11,
-6000000,6.9172e-11,
-5950000,6.9904e-11,
-5850000,7.1324e-11,
-5750000,7.2019e-11,
-5650000,7.1354e-11,
-5550000,7.0817e-11,
-5450000,7.2656e-11,
-5350000,7.3917e-11,
-5250000,7.4652e-11,
-5150000,7.5701e-11,
-5050000,7.602e-11,
-4950000,7.6734e-11,
-4850000,7.9191e-11,
-4750000,7.976e-11,
-4650000,8.0642e-11,
-4550000,8.2252e-11,
-4450000,8.4337e-11,
-4350000,8.6615e-11,
-4250000,8.8656e-11,
-4150000,9.0455e-11,
-4050000,9.2263e-11,
-3950000,9.2941e-11,
-3850000,9.446e-11,
-3750000,9.6107e-11,
-3650000,1.0038e-10,
-3550000,1.0389e-10,
-3450000,1.0935e-10,
-3350000,1.1624e-10,
-3250000,1.2312e-10,
-3150000,1.2654e-10,
-3050000,1.2761e-10,
-2950000,1.247e-10,
-2850000,1.2103e-10,
-2750000,1.1929e-10,
-2650000,1.2179e-10,
-2550000,1.2837e-10,
-2450000,1.4011e-10,
-2350000,1.5253e-10,
-2250000,1.6133e-10,
-2150000,1.6127e-10,
-2050000,1.544e-10,
-1950000,1.4718e-10,
-1850000,1.4493e-10,
-1750000,1.4696e-10,
-1650000,1.5576e-10,
-1550000,1.6718e-10,
-1450000,1.7394e-10,
-1350000,1.7138e-10,
-1250000,1.6723e-10,
-1150000,1.6856e-10,
-1050000,1.8013e-10,
-950000,2.0741e-10,
-850000,2.553e-10,
-750000,3.2305e-10,
-650000,3.462e-10,
-550000,3.0806e-10,
-450000,2.3506e-10,
-350000,1.8359e-10,
-250000,1.5931e-10,
-150000,1.455e-10,
-50000,1.4083e-10,
