General parameters:
Start time: 2024              1              5             18             11      35.892305
Finish time: 2024              1              5             18             36      29.393002
Dwell time (ms): 3750.000000
Source chamber pressure: Error-S
Differential chamber pressure: 1.05e-03
Sample chamber pressure: 1.60e-08
Example position (nm): -3419000.000000,-1191000.000000,-750000.000000
Rotation angle (udeg): 110000045.000000
==========
Instrument status: 
0:Data Directory:/icon/data/2023_12_defect1_repeat_5um_hbn_sub/
1:Sample:MoS2
2:Comments:no
3:PinholePlate:#C13
4:z_Zero:4200
5:Operator:djw77/nav31/kw570
==========
zscan inputs: 
z_sep:50000
z_range:0 -6000000
data_path:/icon/data/2023_12_defect1_repeat_5um_hbn_sub/
example_pos:-3419000 -1191000  -750000
N_dwell:250
sampling_period:15
make_plots:1
m1:0.9867
m2:-0.008
example_pos_norm_1:-3500000 -1150000  -750000
example_pos_norm_2:-3447000 -1222000  -750000
==========
Detector params:
Sampling period (ms): 15.000000
N dwell: 250.000000
Filament current (A): 1.540000
Filament emission (mA): 3.376566
Solenoid current (A): NaN
Solenoid shim current (A): NaN
Lens params:
0  685
1  300
2  125
3      -0.002
4       -0.01
5       0.012
6         0.8
7         2.1
8         2.8
9  3500
10  1400
11         0.85
12   0
==========
Data:
z(nm),I(A)
0,1.5514e-10,
-100000,1.5227e-10,
-200000,1.4913e-10,
-300000,1.5375e-10,
-400000,1.6675e-10,
-500000,2.0013e-10,
-600000,2.7283e-10,
-700000,3.8883e-10,
-800000,4.5614e-10,
-900000,4.4538e-10,
-1000000,3.6062e-10,
-1100000,2.5857e-10,
-1200000,1.9709e-10,
-1300000,1.6957e-10,
-1400000,1.518e-10,
-1500000,1.4524e-10,
-1600000,1.3914e-10,
-1700000,1.3679e-10,
-1800000,1.3416e-10,
-1900000,1.3191e-10,
-2000000,1.3901e-10,
-2100000,1.4892e-10,
-2200000,1.6764e-10,
-2300000,1.8739e-10,
-2400000,1.9575e-10,
-2500000,1.9338e-10,
-2600000,1.7875e-10,
-2700000,1.5369e-10,
-2800000,1.3179e-10,
-2900000,1.2095e-10,
-3000000,1.1539e-10,
-3100000,1.1336e-10,
-3200000,1.1247e-10,
-3300000,1.1006e-10,
-3400000,1.0907e-10,
-3500000,1.0797e-10,
-3600000,1.057e-10,
-3700000,1.0363e-10,
-3800000,1.0171e-10,
-3900000,1.0019e-10,
-4000000,9.8387e-11,
-4100000,9.9859e-11,
-4200000,1.0061e-10,
-4300000,1.0232e-10,
-4400000,1.01e-10,
-4500000,1.0007e-10,
-4600000,9.795e-11,
-4700000,9.4571e-11,
-4800000,9.2006e-11,
-4900000,8.804e-11,
-5000000,8.6267e-11,
-5100000,8.3888e-11,
-5200000,8.2273e-11,
-5300000,7.9399e-11,
-5400000,7.8108e-11,
-5500000,7.6876e-11,
-5600000,7.5512e-11,
-5700000,7.6107e-11,
-5800000,7.4514e-11,
-5900000,7.4709e-11,
-6000000,7.3924e-11,
-5950000,7.5017e-11,
-5850000,7.4612e-11,
-5750000,7.4538e-11,
-5650000,7.6304e-11,
-5550000,7.6996e-11,
-5450000,7.8937e-11,
-5350000,7.9284e-11,
-5250000,8.1385e-11,
-5150000,8.1835e-11,
-5050000,8.5024e-11,
-4950000,8.7012e-11,
-4850000,8.9746e-11,
-4750000,9.3608e-11,
-4650000,9.7538e-11,
-4550000,9.9009e-11,
-4450000,1.0026e-10,
-4350000,1.0161e-10,
-4250000,9.9759e-11,
-4150000,1e-10,
-4050000,9.9961e-11,
-3950000,9.9956e-11,
-3850000,1.0055e-10,
-3750000,1.0236e-10,
-3650000,1.0304e-10,
-3550000,1.0618e-10,
-3450000,1.0805e-10,
-3350000,1.1022e-10,
-3250000,1.1252e-10,
-3150000,1.13e-10,
-3050000,1.1465e-10,
-2950000,1.1699e-10,
-2850000,1.2491e-10,
-2750000,1.4064e-10,
-2650000,1.6365e-10,
-2550000,1.8669e-10,
-2450000,1.975e-10,
-2350000,1.9445e-10,
-2250000,1.801e-10,
-2150000,1.5846e-10,
-2050000,1.433e-10,
-1950000,1.3435e-10,
-1850000,1.3453e-10,
-1750000,1.3571e-10,
-1650000,1.3728e-10,
-1550000,1.4141e-10,
-1450000,1.4767e-10,
-1350000,1.5613e-10,
-1250000,1.7586e-10,
-1150000,2.1743e-10,
-1050000,2.9532e-10,
-950000,4.0516e-10,
-850000,4.6031e-10,
-750000,4.3343e-10,
-650000,3.4041e-10,
-550000,2.4038e-10,
-450000,1.8412e-10,
-350000,1.6052e-10,
-250000,1.5236e-10,
-150000,1.5036e-10,
-50000,1.5465e-10,
