General parameters:
Start time: 2024              1              5             15             34      49.087499
Finish time: 2024              1              5             15             59      42.882492
Dwell time (ms): 3750.000000
Source chamber pressure: Error-S
Differential chamber pressure: 1.05e-03
Sample chamber pressure: 1.60e-08
Example position (nm): -3224000.000000,-1226000.000000,-750000.000000
Rotation angle (udeg): 90000035.000000
==========
Instrument status: 
0:Data Directory:/icon/data/2023_12_defect1_repeat_5um_hbn_sub/
1:Sample:MoS2
2:Comments:no
3:PinholePlate:#C13
4:z_Zero:4200
5:Operator:djw77/nav31/kw570
==========
zscan inputs: 
z_sep:50000
z_range:0 -6000000
data_path:/icon/data/2023_12_defect1_repeat_5um_hbn_sub/
example_pos:-3224000 -1226000  -750000
N_dwell:250
sampling_period:15
make_plots:1
m1:0.9867
m2:-0.008
example_pos_norm_1:-3310000 -1225000  -750000
example_pos_norm_2:-3242000 -1263000  -750000
==========
Detector params:
Sampling period (ms): 15.000000
N dwell: 250.000000
Filament current (A): 1.540000
Filament emission (mA): 3.371778
Solenoid current (A): NaN
Solenoid shim current (A): NaN
Lens params:
0  685
1  300
2  125
3      -0.002
4       -0.01
5       0.012
6         0.8
7         2.1
8         2.8
9  3500
10  1400
11         0.85
12   0
==========
Data:
z(nm),I(A)
0,2.2907e-10,
-100000,1.9727e-10,
-200000,1.7428e-10,
-300000,1.6253e-10,
-400000,1.685e-10,
-500000,1.9583e-10,
-600000,2.6467e-10,
-700000,3.8298e-10,
-800000,4.6346e-10,
-900000,4.6949e-10,
-1000000,4.0101e-10,
-1100000,2.9089e-10,
-1200000,2.1933e-10,
-1300000,1.8567e-10,
-1400000,1.7651e-10,
-1500000,1.8975e-10,
-1600000,2.1563e-10,
-1700000,2.3884e-10,
-1800000,2.3709e-10,
-1900000,2.1432e-10,
-2000000,1.8066e-10,
-2100000,1.5649e-10,
-2200000,1.4742e-10,
-2300000,1.4728e-10,
-2400000,1.547e-10,
-2500000,1.7051e-10,
-2600000,1.8397e-10,
-2700000,1.9239e-10,
-2800000,1.878e-10,
-2900000,1.7452e-10,
-3000000,1.5672e-10,
-3100000,1.4101e-10,
-3200000,1.3071e-10,
-3300000,1.2334e-10,
-3400000,1.1851e-10,
-3500000,1.1519e-10,
-3600000,1.139e-10,
-3700000,1.1206e-10,
-3800000,1.0864e-10,
-3900000,1.0625e-10,
-4000000,1.0273e-10,
-4100000,1.0001e-10,
-4200000,9.8435e-11,
-4300000,9.4381e-11,
-4400000,9.2315e-11,
-4500000,9.1121e-11,
-4600000,8.8366e-11,
-4700000,8.6996e-11,
-4800000,8.525e-11,
-4900000,8.4727e-11,
-5000000,8.1794e-11,
-5100000,8.0091e-11,
-5200000,7.9632e-11,
-5300000,7.7872e-11,
-5400000,7.7466e-11,
-5500000,7.5342e-11,
-5600000,7.507e-11,
-5700000,7.4695e-11,
-5800000,7.4316e-11,
-5900000,7.2794e-11,
-6000000,7.162e-11,
-5950000,7.1283e-11,
-5850000,7.3567e-11,
-5750000,7.483e-11,
-5650000,7.5543e-11,
-5550000,7.5746e-11,
-5450000,7.8017e-11,
-5350000,7.7708e-11,
-5250000,7.9099e-11,
-5150000,8.0161e-11,
-5050000,8.1316e-11,
-4950000,8.2795e-11,
-4850000,8.4192e-11,
-4750000,8.6256e-11,
-4650000,8.8052e-11,
-4550000,8.8633e-11,
-4450000,9.2774e-11,
-4350000,9.3563e-11,
-4250000,9.6762e-11,
-4150000,9.8048e-11,
-4050000,1.008e-10,
-3950000,1.0432e-10,
-3850000,1.0702e-10,
-3750000,1.1165e-10,
-3650000,1.129e-10,
-3550000,1.1552e-10,
-3450000,1.1956e-10,
-3350000,1.2133e-10,
-3250000,1.2752e-10,
-3150000,1.3655e-10,
-3050000,1.4864e-10,
-2950000,1.6397e-10,
-2850000,1.8364e-10,
-2750000,1.922e-10,
-2650000,1.9131e-10,
-2550000,1.8076e-10,
-2450000,1.6659e-10,
-2350000,1.5427e-10,
-2250000,1.4652e-10,
-2150000,1.4932e-10,
-2050000,1.6623e-10,
-1950000,1.975e-10,
-1850000,2.288e-10,
-1750000,2.4306e-10,
-1650000,2.326e-10,
-1550000,2.0639e-10,
-1450000,1.8457e-10,
-1350000,1.7921e-10,
-1250000,1.9592e-10,
-1150000,2.4478e-10,
-1050000,3.3986e-10,
-950000,4.4818e-10,
-850000,4.8515e-10,
-750000,4.46e-10,
-650000,3.3598e-10,
-550000,2.3371e-10,
-450000,1.8034e-10,
-350000,1.6548e-10,
-250000,1.6762e-10,
-150000,1.8392e-10,
-50000,2.0842e-10,
