General parameters:
Start time: 2024              1              8             17             19      57.766887
Finish time: 2024              1              8             17             44      50.713551
Dwell time (ms): 3750.000000
Source chamber pressure: Error-S
Differential chamber pressure: 1.04e-03
Sample chamber pressure: 1.60e-08
Example position (nm): -3764000.000000,-807000.000000,-750000.000000
Rotation angle (udeg): 165000165.000000
==========
Instrument status: 
0:Data Directory:/icon/data/2023_12_defect1_repeat_5um_hbn_sub/
1:Sample:MoS2
2:Comments:no
3:PinholePlate:#C13
4:z_Zero:4200
5:Operator:djw77/nav31/kw570
==========
zscan inputs: 
z_sep:50000
z_range:0 -6000000
data_path:/icon/data/2023_12_defect1_repeat_5um_hbn_sub/
example_pos:-3764000  -807000  -750000
N_dwell:250
sampling_period:15
make_plots:1
m1:0.9867
m2:-0.008
example_pos_norm_1:-3775000  -725000  -750000
example_pos_norm_2:-3806000  -797000  -750000
==========
Detector params:
Sampling period (ms): 15.000000
N dwell: 250.000000
Filament current (A): 1.540000
Filament emission (mA): 3.398796
Solenoid current (A): NaN
Solenoid shim current (A): NaN
Lens params:
0  685
1  300
2  125
3      -0.002
4       -0.01
5       0.012
6         0.8
7         2.1
8         2.8
9  3500
10  1400
11         0.85
12   0
==========
Data:
z(nm),I(A)
0,1.577e-10,
-100000,1.5361e-10,
-200000,1.5553e-10,
-300000,1.676e-10,
-400000,1.9452e-10,
-500000,2.4446e-10,
-600000,3.2375e-10,
-700000,3.5758e-10,
-800000,3.2389e-10,
-900000,2.5154e-10,
-1000000,2.011e-10,
-1100000,1.6946e-10,
-1200000,1.5494e-10,
-1300000,1.471e-10,
-1400000,1.403e-10,
-1500000,1.3907e-10,
-1600000,1.3654e-10,
-1700000,1.3691e-10,
-1800000,1.3936e-10,
-1900000,1.5073e-10,
-2000000,1.7326e-10,
-2100000,2.0357e-10,
-2200000,2.2123e-10,
-2300000,2.2171e-10,
-2400000,2.0426e-10,
-2500000,1.7391e-10,
-2600000,1.4511e-10,
-2700000,1.282e-10,
-2800000,1.2318e-10,
-2900000,1.2177e-10,
-3000000,1.2312e-10,
-3100000,1.2446e-10,
-3200000,1.259e-10,
-3300000,1.2166e-10,
-3400000,1.1483e-10,
-3500000,1.0982e-10,
-3600000,1.0449e-10,
-3700000,1.0076e-10,
-3800000,9.7973e-11,
-3900000,9.612e-11,
-4000000,9.5439e-11,
-4100000,9.4767e-11,
-4200000,9.4189e-11,
-4300000,9.2774e-11,
-4400000,9.01e-11,
-4500000,8.7726e-11,
-4600000,8.4452e-11,
-4700000,8.3321e-11,
-4800000,8.1858e-11,
-4900000,7.918e-11,
-5000000,7.9391e-11,
-5100000,7.8209e-11,
-5200000,7.7232e-11,
-5300000,7.6298e-11,
-5400000,7.5095e-11,
-5500000,7.4895e-11,
-5600000,7.3673e-11,
-5700000,7.4378e-11,
-5800000,7.406e-11,
-5900000,7.3547e-11,
-6000000,7.2322e-11,
-5950000,7.1763e-11,
-5850000,7.2395e-11,
-5750000,7.2973e-11,
-5650000,7.3489e-11,
-5550000,7.3569e-11,
-5450000,7.4449e-11,
-5350000,7.6e-11,
-5250000,7.5216e-11,
-5150000,7.6978e-11,
-5050000,7.7174e-11,
-4950000,7.894e-11,
-4850000,7.9988e-11,
-4750000,8.1798e-11,
-4650000,8.3887e-11,
-4550000,8.5824e-11,
-4450000,8.7974e-11,
-4350000,9.1017e-11,
-4250000,9.2818e-11,
-4150000,9.3659e-11,
-4050000,9.5396e-11,
-3950000,9.6139e-11,
-3850000,9.6796e-11,
-3750000,9.8672e-11,
-3650000,1.0255e-10,
-3550000,1.0569e-10,
-3450000,1.1141e-10,
-3350000,1.1822e-10,
-3250000,1.2347e-10,
-3150000,1.2521e-10,
-3050000,1.2346e-10,
-2950000,1.227e-10,
-2850000,1.2166e-10,
-2750000,1.2458e-10,
-2650000,1.3245e-10,
-2550000,1.5593e-10,
-2450000,1.8516e-10,
-2350000,2.1408e-10,
-2250000,2.2403e-10,
-2150000,2.1597e-10,
-2050000,1.9022e-10,
-1950000,1.6264e-10,
-1850000,1.4471e-10,
-1750000,1.3786e-10,
-1650000,1.3485e-10,
-1550000,1.3674e-10,
-1450000,1.3914e-10,
-1350000,1.4322e-10,
-1250000,1.4862e-10,
-1150000,1.6046e-10,
-1050000,1.8041e-10,
-950000,2.181e-10,
-850000,2.7985e-10,
-750000,3.4401e-10,
-650000,3.5197e-10,
-550000,2.9241e-10,
-450000,2.1938e-10,
-350000,1.778e-10,
-250000,1.6065e-10,
-150000,1.5405e-10,
-50000,1.5533e-10,
