General parameters:
Start time: 2023             12             28             17             27      54.190919
Finish time: 2023             12             28             17             44      32.464379
Dwell time (ms): 3750.000000
Source chamber pressure: Error-S
Differential chamber pressure: 1.04e-03
Sample chamber pressure: 1.60e-08
Example position (nm): -3631000.000000,-1052000.000000,-750000.000000
Rotation angle (udeg): 135000080.000000
==========
Instrument status: 
0:Data Directory:/icon/data/2023_12_defect1_repeat_5um_hbn_sub/
1:Sample:MoS2
2:Comments:no
3:PinholePlate:#C13
4:z_Zero:4200
5:Operator:djw77/nav31/kw570
==========
zscan inputs: 
z_sep:50000
z_range:0 -6000000
data_path:/icon/data/2023_12_defect1_repeat_5um_hbn_sub/
example_pos:-3631000 -1052000  -750000
N_dwell:250
sampling_period:15
make_plots:1
m1:0.9867
m2:-0.008
example_pos_norm_1:-3550000 -1050000  -750000
==========
Detector params:
Sampling period (ms): 15.000000
N dwell: 250.000000
Filament current (A): 1.540000
Filament emission (mA): 3.321846
Solenoid current (A): NaN
Solenoid shim current (A): NaN
Lens params:
0  685
1  300
2  125
3      -0.002
4       -0.01
5       0.012
6         0.8
7         2.1
8         2.8
9  3500
10  1400
11         0.85
12   0
==========
Data:
z(nm),I(A)
0,1.661e-10,
-100000,1.5809e-10,
-200000,1.5799e-10,
-300000,1.6039e-10,
-400000,1.7375e-10,
-500000,2.0464e-10,
-600000,2.6684e-10,
-700000,3.5103e-10,
-800000,3.7534e-10,
-900000,3.2075e-10,
-1000000,2.4255e-10,
-1100000,1.942e-10,
-1200000,1.7418e-10,
-1300000,1.6978e-10,
-1400000,1.8908e-10,
-1500000,2.3491e-10,
-1600000,2.7048e-10,
-1700000,2.7316e-10,
-1800000,2.5076e-10,
-1900000,2.0534e-10,
-2000000,1.6894e-10,
-2100000,1.5771e-10,
-2200000,1.6552e-10,
-2300000,1.9382e-10,
-2400000,2.3618e-10,
-2500000,2.8036e-10,
-2600000,3.0303e-10,
-2700000,2.9363e-10,
-2800000,2.5814e-10,
-2900000,2.1265e-10,
-3000000,1.7335e-10,
-3100000,1.5011e-10,
-3200000,1.4047e-10,
-3300000,1.3747e-10,
-3400000,1.3982e-10,
-3500000,1.4526e-10,
-3600000,1.4785e-10,
-3700000,1.4717e-10,
-3800000,1.43e-10,
-3900000,1.3607e-10,
-4000000,1.2615e-10,
-4100000,1.1744e-10,
-4200000,1.1e-10,
-4300000,1.0403e-10,
-4400000,1.0007e-10,
-4500000,9.7373e-11,
-4600000,9.5691e-11,
-4700000,9.2291e-11,
-4800000,9.0081e-11,
-4900000,8.9194e-11,
-5000000,8.8546e-11,
-5100000,8.729e-11,
-5200000,8.6786e-11,
-5300000,8.489e-11,
-5400000,8.3153e-11,
-5500000,8.2132e-11,
-5600000,8.1126e-11,
-5700000,8.0658e-11,
-5800000,7.9941e-11,
-5900000,7.8554e-11,
-6000000,7.8375e-11,
-5950000,7.8847e-11,
-5850000,7.9774e-11,
-5750000,7.9472e-11,
-5650000,8.0278e-11,
-5550000,8.182e-11,
-5450000,8.3456e-11,
-5350000,8.3761e-11,
-5250000,8.5866e-11,
-5150000,8.7096e-11,
-5050000,8.829e-11,
-4950000,9.0432e-11,
-4850000,9.055e-11,
-4750000,9.2272e-11,
-4650000,9.3232e-11,
-4550000,9.6702e-11,
-4450000,9.8554e-11,
-4350000,1.0117e-10,
-4250000,1.0736e-10,
-4150000,1.1357e-10,
-4050000,1.2064e-10,
-3950000,1.3116e-10,
-3850000,1.4036e-10,
-3750000,1.4478e-10,
-3650000,1.4749e-10,
-3550000,1.4745e-10,
-3450000,1.4123e-10,
-3350000,1.4041e-10,
-3250000,1.4024e-10,
-3150000,1.4463e-10,
-3050000,1.6045e-10,
-2950000,1.9007e-10,
-2850000,2.3658e-10,
-2750000,2.8071e-10,
-2650000,3.0241e-10,
-2550000,2.9575e-10,
-2450000,2.6244e-10,
-2350000,2.1601e-10,
-2250000,1.7745e-10,
-2150000,1.5875e-10,
-2050000,1.6135e-10,
-1950000,1.8381e-10,
-1850000,2.2869e-10,
-1750000,2.6767e-10,
-1650000,2.7555e-10,
-1550000,2.5609e-10,
-1450000,2.1147e-10,
-1350000,1.7779e-10,
-1250000,1.6812e-10,
-1150000,1.7989e-10,
-1050000,2.1417e-10,
-950000,2.7358e-10,
-850000,3.5212e-10,
-750000,3.6289e-10,
-650000,3.1689e-10,
-550000,2.3057e-10,
-450000,1.8535e-10,
-350000,1.6584e-10,
-250000,1.5717e-10,
-150000,1.576e-10,
-50000,1.6178e-10,
