General parameters:
Start time: 2024              1              9             14             49      26.147261
Finish time: 2024              1              9             15             14      21.559419
Dwell time (ms): 3750.000000
Source chamber pressure: Error-S
Differential chamber pressure: 1.01e-03
Sample chamber pressure: 1.60e-08
Example position (nm): -3168000.000000,-1229000.000000,-750000.000000
Rotation angle (udeg): 84999935.000000
==========
Instrument status: 
0:Data Directory:/icon/data/2023_12_defect1_repeat_5um_hbn_sub/
1:Sample:MoS2
2:Comments:no
3:PinholePlate:#C13
4:z_Zero:4200
5:Operator:djw77/nav31/kw570
==========
zscan inputs: 
z_sep:50000
z_range:0 -6000000
data_path:/icon/data/2023_12_defect1_repeat_5um_hbn_sub/
example_pos:-3168000 -1229000  -750000
N_dwell:250
sampling_period:15
make_plots:1
m1:0.9867
m2:-0.008
example_pos_norm_1:-3250000 -1225000  -750000
example_pos_norm_2:-3185000 -1265000  -750000
==========
Detector params:
Sampling period (ms): 15.000000
N dwell: 250.000000
Filament current (A): 1.540000
Filament emission (mA): 3.402216
Solenoid current (A): NaN
Solenoid shim current (A): NaN
Lens params:
0  685
1  300
2  125
3      -0.002
4       -0.01
5       0.012
6         0.8
7         2.1
8         2.8
9  3500
10  1400
11         0.85
12   0
==========
Data:
z(nm),I(A)
0,2.4557e-10,
-100000,2.0708e-10,
-200000,1.8009e-10,
-300000,1.6674e-10,
-400000,1.7008e-10,
-500000,2.0412e-10,
-600000,2.823e-10,
-700000,4.1545e-10,
-800000,4.9977e-10,
-900000,5.029e-10,
-1000000,4.328e-10,
-1100000,3.1087e-10,
-1200000,2.3174e-10,
-1300000,1.9746e-10,
-1400000,1.9337e-10,
-1500000,2.1672e-10,
-1600000,2.6192e-10,
-1700000,2.9617e-10,
-1800000,2.9625e-10,
-1900000,2.6274e-10,
-2000000,2.1793e-10,
-2100000,1.7675e-10,
-2200000,1.59e-10,
-2300000,1.6814e-10,
-2400000,1.9613e-10,
-2500000,2.4243e-10,
-2600000,2.9033e-10,
-2700000,3.1998e-10,
-2800000,3.1428e-10,
-2900000,2.7629e-10,
-3000000,2.2486e-10,
-3100000,1.7411e-10,
-3200000,1.4661e-10,
-3300000,1.3019e-10,
-3400000,1.2419e-10,
-3500000,1.2575e-10,
-3600000,1.283e-10,
-3700000,1.3118e-10,
-3800000,1.3363e-10,
-3900000,1.3393e-10,
-4000000,1.2954e-10,
-4100000,1.2108e-10,
-4200000,1.1109e-10,
-4300000,1.023e-10,
-4400000,9.5328e-11,
-4500000,9.0784e-11,
-4600000,8.7284e-11,
-4700000,8.4413e-11,
-4800000,8.1806e-11,
-4900000,8.0877e-11,
-5000000,7.913e-11,
-5100000,7.8654e-11,
-5200000,7.6995e-11,
-5300000,7.6126e-11,
-5400000,7.6668e-11,
-5500000,7.3848e-11,
-5600000,7.3032e-11,
-5700000,7.266e-11,
-5800000,7.2593e-11,
-5900000,7.0783e-11,
-6000000,6.8759e-11,
-5950000,6.9325e-11,
-5850000,7.0934e-11,
-5750000,7.1924e-11,
-5650000,7.2993e-11,
-5550000,7.2489e-11,
-5450000,7.4732e-11,
-5350000,7.6599e-11,
-5250000,7.6206e-11,
-5150000,7.6898e-11,
-5050000,7.7952e-11,
-4950000,7.9315e-11,
-4850000,8.073e-11,
-4750000,8.2378e-11,
-4650000,8.5029e-11,
-4550000,8.7826e-11,
-4450000,9.1628e-11,
-4350000,9.8808e-11,
-4250000,1.0568e-10,
-4150000,1.1565e-10,
-4050000,1.2498e-10,
-3950000,1.3288e-10,
-3850000,1.3447e-10,
-3750000,1.3329e-10,
-3650000,1.3119e-10,
-3550000,1.2729e-10,
-3450000,1.242e-10,
-3350000,1.2635e-10,
-3250000,1.3547e-10,
-3150000,1.5457e-10,
-3050000,1.9364e-10,
-2950000,2.4646e-10,
-2850000,2.9505e-10,
-2750000,3.2543e-10,
-2650000,3.1611e-10,
-2550000,2.7585e-10,
-2450000,2.2393e-10,
-2350000,1.8163e-10,
-2250000,1.6135e-10,
-2150000,1.6327e-10,
-2050000,1.9039e-10,
-1950000,2.4017e-10,
-1850000,2.8312e-10,
-1750000,3.0142e-10,
-1650000,2.8364e-10,
-1550000,2.4402e-10,
-1450000,2.0461e-10,
-1350000,1.909e-10,
-1250000,2.067e-10,
-1150000,2.5641e-10,
-1050000,3.5835e-10,
-950000,4.7497e-10,
-850000,5.1179e-10,
-750000,4.7657e-10,
-650000,3.5937e-10,
-550000,2.4369e-10,
-450000,1.8444e-10,
-350000,1.6759e-10,
-250000,1.7147e-10,
-150000,1.8921e-10,
-50000,2.2146e-10,
