General parameters:
Start time: 2024              1              6             17              5      46.174843
Finish time: 2024              1              6             17             30      38.240367
Dwell time (ms): 3750.000000
Source chamber pressure: Error-S
Differential chamber pressure: 1.05e-03
Sample chamber pressure: 1.60e-08
Example position (nm): -3656000.000000,-1020000.000000,-750000.000000
Rotation angle (udeg): 139999865.000000
==========
Instrument status: 
0:Data Directory:/icon/data/2023_12_defect1_repeat_5um_hbn_sub/
1:Sample:MoS2
2:Comments:no
3:PinholePlate:#C13
4:z_Zero:4200
5:Operator:djw77/nav31/kw570
==========
zscan inputs: 
z_sep:50000
z_range:0 -6000000
data_path:/icon/data/2023_12_defect1_repeat_5um_hbn_sub/
example_pos:-3656000 -1020000  -750000
N_dwell:250
sampling_period:15
make_plots:1
m1:0.9867
m2:-0.008
example_pos_norm_1:-3700000  -950000  -750000
example_pos_norm_2:-3696000 -1028000  -750000
==========
Detector params:
Sampling period (ms): 15.000000
N dwell: 250.000000
Filament current (A): 1.540000
Filament emission (mA): 3.384774
Solenoid current (A): NaN
Solenoid shim current (A): NaN
Lens params:
0  685
1  300
2  125
3      -0.002
4       -0.01
5       0.012
6         0.8
7         2.1
8         2.8
9  3500
10  1400
11         0.85
12   0
==========
Data:
z(nm),I(A)
0,1.7797e-10,
-100000,1.6845e-10,
-200000,1.6212e-10,
-300000,1.6541e-10,
-400000,1.8076e-10,
-500000,2.2063e-10,
-600000,2.9387e-10,
-700000,3.7408e-10,
-800000,3.8571e-10,
-900000,3.2764e-10,
-1000000,2.4764e-10,
-1100000,1.9432e-10,
-1200000,1.7283e-10,
-1300000,1.7139e-10,
-1400000,1.9038e-10,
-1500000,2.323e-10,
-1600000,2.6786e-10,
-1700000,2.7608e-10,
-1800000,2.5153e-10,
-1900000,2.0621e-10,
-2000000,1.7039e-10,
-2100000,1.6064e-10,
-2200000,1.7243e-10,
-2300000,2.0848e-10,
-2400000,2.6522e-10,
-2500000,3.2296e-10,
-2600000,3.5084e-10,
-2700000,3.4603e-10,
-2800000,3.0245e-10,
-2900000,2.406e-10,
-3000000,1.9137e-10,
-3100000,1.6355e-10,
-3200000,1.5068e-10,
-3300000,1.5478e-10,
-3400000,1.6526e-10,
-3500000,1.7772e-10,
-3600000,1.8933e-10,
-3700000,1.9555e-10,
-3800000,1.9181e-10,
-3900000,1.8085e-10,
-4000000,1.6381e-10,
-4100000,1.4414e-10,
-4200000,1.2634e-10,
-4300000,1.1475e-10,
-4400000,1.0599e-10,
-4500000,1.0133e-10,
-4600000,9.8303e-11,
-4700000,9.6104e-11,
-4800000,9.5132e-11,
-4900000,9.5356e-11,
-5000000,9.5638e-11,
-5100000,9.4919e-11,
-5200000,9.473e-11,
-5300000,9.3251e-11,
-5400000,9.1788e-11,
-5500000,8.7754e-11,
-5600000,8.2986e-11,
-5700000,8.6202e-11,
-5800000,8.3687e-11,
-5900000,8.1337e-11,
-6000000,7.8869e-11,
-5950000,7.879e-11,
-5850000,8.1966e-11,
-5750000,8.3788e-11,
-5650000,8.5764e-11,
-5550000,8.3987e-11,
-5450000,9.0192e-11,
-5350000,9.3052e-11,
-5250000,9.4359e-11,
-5150000,9.478e-11,
-5050000,9.3906e-11,
-4950000,9.4994e-11,
-4850000,9.4728e-11,
-4750000,9.5741e-11,
-4650000,9.6985e-11,
-4550000,9.8732e-11,
-4450000,1.0264e-10,
-4350000,1.0928e-10,
-4250000,1.1978e-10,
-4150000,1.3263e-10,
-4050000,1.5383e-10,
-3950000,1.7257e-10,
-3850000,1.8859e-10,
-3750000,1.9414e-10,
-3650000,1.9237e-10,
-3550000,1.8596e-10,
-3450000,1.7247e-10,
-3350000,1.5942e-10,
-3250000,1.5311e-10,
-3150000,1.5564e-10,
-3050000,1.7314e-10,
-2950000,2.0886e-10,
-2850000,2.681e-10,
-2750000,3.2291e-10,
-2650000,3.5574e-10,
-2550000,3.4733e-10,
-2450000,3.03e-10,
-2350000,2.4031e-10,
-2250000,1.9153e-10,
-2150000,1.6583e-10,
-2050000,1.6301e-10,
-1950000,1.8391e-10,
-1850000,2.2692e-10,
-1750000,2.6383e-10,
-1650000,2.7673e-10,
-1550000,2.5661e-10,
-1450000,2.1753e-10,
-1350000,1.8205e-10,
-1250000,1.7054e-10,
-1150000,1.8085e-10,
-1050000,2.1488e-10,
-950000,2.7749e-10,
-850000,3.6409e-10,
-750000,3.9557e-10,
-650000,3.497e-10,
-550000,2.5988e-10,
-450000,2.0088e-10,
-350000,1.7244e-10,
-250000,1.6337e-10,
-150000,1.6603e-10,
-50000,1.7214e-10,
