General parameters:
Start time: 2024              1              5             18             50      17.928461
Finish time: 2024              1              5             19             15      17.008585
Dwell time (ms): 3750.000000
Source chamber pressure: Error-S
Differential chamber pressure: 1.06e-03
Sample chamber pressure: 1.60e-08
Example position (nm): -3469000.000000,-1170000.000000,-750000.000000
Rotation angle (udeg): 114999925.000000
==========
Instrument status: 
0:Data Directory:/icon/data/2023_12_defect1_repeat_5um_hbn_sub/
1:Sample:MoS2
2:Comments:no
3:PinholePlate:#C13
4:z_Zero:4200
5:Operator:djw77/nav31/kw570
==========
zscan inputs: 
z_sep:50000
z_range:0 -6000000
data_path:/icon/data/2023_12_defect1_repeat_5um_hbn_sub/
example_pos:-3469000 -1170000  -750000
N_dwell:250
sampling_period:15
make_plots:1
m1:0.9867
m2:-0.008
example_pos_norm_1:-3525000 -1125000  -750000
example_pos_norm_2:-3495000 -1202000  -750000
==========
Detector params:
Sampling period (ms): 15.000000
N dwell: 250.000000
Filament current (A): 1.540000
Filament emission (mA): 3.375198
Solenoid current (A): NaN
Solenoid shim current (A): NaN
Lens params:
0  685
1  300
2  125
3      -0.002
4       -0.01
5       0.012
6         0.8
7         2.1
8         2.8
9  3500
10  1400
11         0.85
12   0
==========
Data:
z(nm),I(A)
0,1.4649e-10,
-100000,1.4677e-10,
-200000,1.4751e-10,
-300000,1.5137e-10,
-400000,1.6756e-10,
-500000,2.0165e-10,
-600000,2.7258e-10,
-700000,3.7697e-10,
-800000,4.4115e-10,
-900000,4.1878e-10,
-1000000,3.3641e-10,
-1100000,2.4753e-10,
-1200000,1.9426e-10,
-1300000,1.6795e-10,
-1400000,1.5556e-10,
-1500000,1.5065e-10,
-1600000,1.5071e-10,
-1700000,1.4652e-10,
-1800000,1.3851e-10,
-1900000,1.3501e-10,
-2000000,1.3471e-10,
-2100000,1.4031e-10,
-2200000,1.5431e-10,
-2300000,1.6984e-10,
-2400000,1.7467e-10,
-2500000,1.7261e-10,
-2600000,1.6234e-10,
-2700000,1.457e-10,
-2800000,1.3305e-10,
-2900000,1.2675e-10,
-3000000,1.2449e-10,
-3100000,1.2622e-10,
-3200000,1.3021e-10,
-3300000,1.3036e-10,
-3400000,1.2896e-10,
-3500000,1.2426e-10,
-3600000,1.1754e-10,
-3700000,1.1126e-10,
-3800000,1.0552e-10,
-3900000,1.0209e-10,
-4000000,9.81e-11,
-4100000,9.6606e-11,
-4200000,9.5442e-11,
-4300000,9.5833e-11,
-4400000,9.51e-11,
-4500000,9.4348e-11,
-4600000,9.1926e-11,
-4700000,9.154e-11,
-4800000,8.8749e-11,
-4900000,8.7734e-11,
-5000000,8.4605e-11,
-5100000,8.3738e-11,
-5200000,8.248e-11,
-5300000,8.0902e-11,
-5400000,7.922e-11,
-5500000,7.8192e-11,
-5600000,7.8434e-11,
-5700000,7.6678e-11,
-5800000,7.6906e-11,
-5900000,7.6171e-11,
-6000000,7.5893e-11,
-5950000,7.5888e-11,
-5850000,7.5775e-11,
-5750000,7.6493e-11,
-5650000,7.7152e-11,
-5550000,7.7397e-11,
-5450000,7.8123e-11,
-5350000,7.9529e-11,
-5250000,8.113e-11,
-5150000,8.1477e-11,
-5050000,8.3392e-11,
-4950000,8.5365e-11,
-4850000,8.7772e-11,
-4750000,9.0268e-11,
-4650000,9.1314e-11,
-4550000,9.2511e-11,
-4450000,9.5164e-11,
-4350000,9.6262e-11,
-4250000,9.5852e-11,
-4150000,9.6682e-11,
-4050000,9.721e-11,
-3950000,9.8966e-11,
-3850000,1.0313e-10,
-3750000,1.0818e-10,
-3650000,1.1369e-10,
-3550000,1.2061e-10,
-3450000,1.262e-10,
-3350000,1.301e-10,
-3250000,1.3083e-10,
-3150000,1.3086e-10,
-3050000,1.2701e-10,
-2950000,1.2582e-10,
-2850000,1.2788e-10,
-2750000,1.3836e-10,
-2650000,1.5359e-10,
-2550000,1.6875e-10,
-2450000,1.7542e-10,
-2350000,1.7398e-10,
-2250000,1.6243e-10,
-2150000,1.4747e-10,
-2050000,1.3737e-10,
-1950000,1.3539e-10,
-1850000,1.3793e-10,
-1750000,1.441e-10,
-1650000,1.4793e-10,
-1550000,1.5106e-10,
-1450000,1.5321e-10,
-1350000,1.5974e-10,
-1250000,1.7686e-10,
-1150000,2.1224e-10,
-1050000,2.7918e-10,
-950000,3.786e-10,
-850000,4.3743e-10,
-750000,4.1795e-10,
-650000,3.3112e-10,
-550000,2.3824e-10,
-450000,1.8293e-10,
-350000,1.5975e-10,
-250000,1.4932e-10,
-150000,1.4665e-10,
-50000,1.4643e-10,
