General parameters:
Start time: 2024              1              5             17             38      18.386941
Finish time: 2024              1              5             18              3      14.261921
Dwell time (ms): 3750.000000
Source chamber pressure: Error-S
Differential chamber pressure: 1.05e-03
Sample chamber pressure: 1.60e-08
Example position (nm): -3376000.000000,-1204000.000000,-750000.000000
Rotation angle (udeg): 104999925.000000
==========
Instrument status: 
0:Data Directory:/icon/data/2023_12_defect1_repeat_5um_hbn_sub/
1:Sample:MoS2
2:Comments:no
3:PinholePlate:#C13
4:z_Zero:4200
5:Operator:djw77/nav31/kw570
==========
zscan inputs: 
z_sep:50000
z_range:0 -6000000
data_path:/icon/data/2023_12_defect1_repeat_5um_hbn_sub/
example_pos:-3376000 -1204000  -750000
N_dwell:250
sampling_period:15
make_plots:1
m1:0.9867
m2:-0.008
example_pos_norm_1:-3450000 -1175000  -750000
example_pos_norm_2:-3406000 -1238000  -750000
==========
Detector params:
Sampling period (ms): 15.000000
N dwell: 250.000000
Filament current (A): 1.540000
Filament emission (mA): 3.374514
Solenoid current (A): NaN
Solenoid shim current (A): NaN
Lens params:
0  685
1  300
2  125
3      -0.002
4       -0.01
5       0.012
6         0.8
7         2.1
8         2.8
9  3500
10  1400
11         0.85
12   0
==========
Data:
z(nm),I(A)
0,1.7134e-10,
-100000,1.615e-10,
-200000,1.5588e-10,
-300000,1.5635e-10,
-400000,1.663e-10,
-500000,1.9941e-10,
-600000,2.6827e-10,
-700000,3.8538e-10,
-800000,4.5313e-10,
-900000,4.5115e-10,
-1000000,3.7378e-10,
-1100000,2.718e-10,
-1200000,2.0554e-10,
-1300000,1.7062e-10,
-1400000,1.5328e-10,
-1500000,1.4557e-10,
-1600000,1.4092e-10,
-1700000,1.3781e-10,
-1800000,1.3779e-10,
-1900000,1.3766e-10,
-2000000,1.4045e-10,
-2100000,1.4833e-10,
-2200000,1.6369e-10,
-2300000,1.7884e-10,
-2400000,1.8317e-10,
-2500000,1.788e-10,
-2600000,1.6337e-10,
-2700000,1.4169e-10,
-2800000,1.2541e-10,
-2900000,1.1923e-10,
-3000000,1.1594e-10,
-3100000,1.171e-10,
-3200000,1.2018e-10,
-3300000,1.2106e-10,
-3400000,1.2169e-10,
-3500000,1.1997e-10,
-3600000,1.1669e-10,
-3700000,1.1183e-10,
-3800000,1.067e-10,
-3900000,1.0183e-10,
-4000000,9.7573e-11,
-4100000,9.6048e-11,
-4200000,9.3113e-11,
-4300000,9.2772e-11,
-4400000,9.0934e-11,
-4500000,8.993e-11,
-4600000,8.8201e-11,
-4700000,8.7544e-11,
-4800000,8.5732e-11,
-4900000,8.3641e-11,
-5000000,8.2758e-11,
-5100000,8.1004e-11,
-5200000,8.0098e-11,
-5300000,7.8711e-11,
-5400000,7.7851e-11,
-5500000,7.6621e-11,
-5600000,7.6415e-11,
-5700000,7.6408e-11,
-5800000,7.5776e-11,
-5900000,7.4787e-11,
-6000000,7.5653e-11,
-5950000,7.4984e-11,
-5850000,7.5798e-11,
-5750000,7.6294e-11,
-5650000,7.6358e-11,
-5550000,7.5705e-11,
-5450000,7.6834e-11,
-5350000,7.7948e-11,
-5250000,7.7625e-11,
-5150000,8.0766e-11,
-5050000,8.0796e-11,
-4950000,8.216e-11,
-4850000,8.3302e-11,
-4750000,8.6159e-11,
-4650000,8.7544e-11,
-4550000,8.8999e-11,
-4450000,9.1566e-11,
-4350000,9.1796e-11,
-4250000,9.3703e-11,
-4150000,9.5342e-11,
-4050000,9.71e-11,
-3950000,9.9635e-11,
-3850000,1.0355e-10,
-3750000,1.0759e-10,
-3650000,1.1342e-10,
-3550000,1.185e-10,
-3450000,1.2212e-10,
-3350000,1.2217e-10,
-3250000,1.2138e-10,
-3150000,1.1855e-10,
-3050000,1.1594e-10,
-2950000,1.1756e-10,
-2850000,1.2151e-10,
-2750000,1.3264e-10,
-2650000,1.5056e-10,
-2550000,1.6917e-10,
-2450000,1.8278e-10,
-2350000,1.8299e-10,
-2250000,1.7144e-10,
-2150000,1.5488e-10,
-2050000,1.4456e-10,
-1950000,1.3832e-10,
-1850000,1.384e-10,
-1750000,1.3701e-10,
-1650000,1.41e-10,
-1550000,1.4348e-10,
-1450000,1.4871e-10,
-1350000,1.5958e-10,
-1250000,1.8159e-10,
-1150000,2.2619e-10,
-1050000,3.0988e-10,
-950000,4.1784e-10,
-850000,4.6085e-10,
-750000,4.326e-10,
-650000,3.367e-10,
-550000,2.3597e-10,
-450000,1.8179e-10,
-350000,1.6147e-10,
-250000,1.5606e-10,
-150000,1.5842e-10,
-50000,1.6847e-10,
