General parameters:
Start time: 2024              1             10             15             59      34.836538
Finish time: 2024              1             10             16             24      33.879009
Dwell time (ms): 3750.000000
Source chamber pressure: Error-S
Differential chamber pressure: 1.00e-03
Sample chamber pressure: 1.59e-08
Example position (nm): -3184000.000000,-1225000.000000,-750000.000000
Rotation angle (udeg): 85000045.000000
==========
Instrument status: 
0:Data Directory:/icon/data/2023_12_defect1_repeat_5um_hbn_sub/
1:Sample:MoS2
2:Comments:no
3:PinholePlate:#C13
4:z_Zero:4200
5:Operator:djw77/nav31/kw570
==========
zscan inputs: 
z_sep:50000
z_range:0 -6000000
data_path:/icon/data/2023_12_defect1_repeat_5um_hbn_sub/
example_pos:-3184000 -1225000  -750000
N_dwell:250
sampling_period:15
make_plots:1
m1:0.9867
m2:-0.008
example_pos_norm_1:-3250000 -1225000  -750000
example_pos_norm_2:-3186000 -1275000  -750000
==========
Detector params:
Sampling period (ms): 15.000000
N dwell: 250.000000
Filament current (A): 1.540000
Filament emission (mA): 3.414870
Solenoid current (A): NaN
Solenoid shim current (A): NaN
Lens params:
0  685
1  300
2  125
3      -0.002
4       -0.01
5       0.012
6         0.8
7         2.1
8         2.8
9  3500
10  1400
11         0.85
12   0
==========
Data:
z(nm),I(A)
0,2.3043e-10,
-100000,1.9386e-10,
-200000,1.7006e-10,
-300000,1.5979e-10,
-400000,1.6518e-10,
-500000,2.0578e-10,
-600000,3.022e-10,
-700000,4.6319e-10,
-800000,5.4524e-10,
-900000,5.3597e-10,
-1000000,4.254e-10,
-1100000,2.8311e-10,
-1200000,2.0798e-10,
-1300000,1.8307e-10,
-1400000,1.8574e-10,
-1500000,2.233e-10,
-1600000,2.8335e-10,
-1700000,3.1661e-10,
-1800000,3.1335e-10,
-1900000,2.7401e-10,
-2000000,2.1248e-10,
-2100000,1.6706e-10,
-2200000,1.5322e-10,
-2300000,1.6434e-10,
-2400000,2.0205e-10,
-2500000,2.5855e-10,
-2600000,3.197e-10,
-2700000,3.4857e-10,
-2800000,3.3781e-10,
-2900000,2.8602e-10,
-3000000,2.1847e-10,
-3100000,1.6419e-10,
-3200000,1.3561e-10,
-3300000,1.2218e-10,
-3400000,1.2089e-10,
-3500000,1.2242e-10,
-3600000,1.2807e-10,
-3700000,1.3301e-10,
-3800000,1.3694e-10,
-3900000,1.3804e-10,
-4000000,1.3315e-10,
-4100000,1.2261e-10,
-4200000,1.1027e-10,
-4300000,1.0133e-10,
-4400000,9.3977e-11,
-4500000,8.88e-11,
-4600000,8.507e-11,
-4700000,8.311e-11,
-4800000,8.1832e-11,
-4900000,7.9496e-11,
-5000000,7.9096e-11,
-5100000,7.7801e-11,
-5200000,7.7107e-11,
-5300000,7.6878e-11,
-5400000,7.6158e-11,
-5500000,7.5234e-11,
-5600000,7.4698e-11,
-5700000,7.3606e-11,
-5800000,7.2702e-11,
-5900000,7.0908e-11,
-6000000,6.9521e-11,
-5950000,6.952e-11,
-5850000,7.1274e-11,
-5750000,7.3438e-11,
-5650000,7.36e-11,
-5550000,7.4064e-11,
-5450000,7.5445e-11,
-5350000,7.7078e-11,
-5250000,7.6962e-11,
-5150000,7.7276e-11,
-5050000,7.785e-11,
-4950000,7.9366e-11,
-4850000,8.1543e-11,
-4750000,8.2346e-11,
-4650000,8.3625e-11,
-4550000,8.6671e-11,
-4450000,9.0518e-11,
-4350000,9.5859e-11,
-4250000,1.0413e-10,
-4150000,1.1684e-10,
-4050000,1.2752e-10,
-3950000,1.3557e-10,
-3850000,1.3927e-10,
-3750000,1.3763e-10,
-3650000,1.3237e-10,
-3550000,1.2573e-10,
-3450000,1.2239e-10,
-3350000,1.2184e-10,
-3250000,1.2739e-10,
-3150000,1.4476e-10,
-3050000,1.8245e-10,
-2950000,2.4446e-10,
-2850000,3.0902e-10,
-2750000,3.4692e-10,
-2650000,3.4541e-10,
-2550000,3.003e-10,
-2450000,2.3886e-10,
-2350000,1.8591e-10,
-2250000,1.5736e-10,
-2150000,1.5499e-10,
-2050000,1.7952e-10,
-1950000,2.4051e-10,
-1850000,2.948e-10,
-1750000,3.214e-10,
-1650000,3.0669e-10,
-1550000,2.572e-10,
-1450000,2.0413e-10,
-1350000,1.8184e-10,
-1250000,1.8903e-10,
-1150000,2.3178e-10,
-1050000,3.3142e-10,
-950000,4.8559e-10,
-850000,5.4859e-10,
-750000,5.1953e-10,
-650000,4.0306e-10,
-550000,2.5345e-10,
-450000,1.8208e-10,
-350000,1.6006e-10,
-250000,1.6095e-10,
-150000,1.7686e-10,
-50000,2.0603e-10,
