General parameters:
Start time: 2024              1              9             18             33      37.556167
Finish time: 2024              1              9             18             58      34.168283
Dwell time (ms): 3750.000000
Source chamber pressure: Error-S
Differential chamber pressure: 1.01e-03
Sample chamber pressure: 1.59e-08
Example position (nm): -3671000.000000,-1024000.000000,-750000.000000
Rotation angle (udeg): 140000085.000000
==========
Instrument status: 
0:Data Directory:/icon/data/2023_12_defect1_repeat_5um_hbn_sub/
1:Sample:MoS2
2:Comments:no
3:PinholePlate:#C13
4:z_Zero:4200
5:Operator:djw77/nav31/kw570
==========
zscan inputs: 
z_sep:50000
z_range:0 -6000000
data_path:/icon/data/2023_12_defect1_repeat_5um_hbn_sub/
example_pos:-3671000 -1024000  -750000
N_dwell:250
sampling_period:15
make_plots:1
m1:0.9867
m2:-0.008
example_pos_norm_1:-3725000  -940000  -750000
example_pos_norm_2:-3714000 -1032000  -750000
==========
Detector params:
Sampling period (ms): 15.000000
N dwell: 250.000000
Filament current (A): 1.540000
Filament emission (mA): 3.404952
Solenoid current (A): NaN
Solenoid shim current (A): NaN
Lens params:
0  685
1  300
2  125
3      -0.002
4       -0.01
5       0.012
6         0.8
7         2.1
8         2.8
9  3500
10  1400
11         0.85
12   0
==========
Data:
z(nm),I(A)
0,1.6575e-10,
-100000,1.5797e-10,
-200000,1.5366e-10,
-300000,1.5745e-10,
-400000,1.7655e-10,
-500000,2.2557e-10,
-600000,3.2931e-10,
-700000,4.1799e-10,
-800000,4.125e-10,
-900000,3.1119e-10,
-1000000,2.2224e-10,
-1100000,1.7809e-10,
-1200000,1.6017e-10,
-1300000,1.6534e-10,
-1400000,1.9838e-10,
-1500000,2.5041e-10,
-1600000,2.9146e-10,
-1700000,2.9144e-10,
-1800000,2.5635e-10,
-1900000,1.945e-10,
-2000000,1.5916e-10,
-2100000,1.5511e-10,
-2200000,1.7367e-10,
-2300000,2.2399e-10,
-2400000,2.9773e-10,
-2500000,3.707e-10,
-2600000,3.9614e-10,
-2700000,3.7674e-10,
-2800000,3.1283e-10,
-2900000,2.3162e-10,
-3000000,1.7575e-10,
-3100000,1.5151e-10,
-3200000,1.4487e-10,
-3300000,1.5144e-10,
-3400000,1.7022e-10,
-3500000,1.8947e-10,
-3600000,2.0729e-10,
-3700000,2.1349e-10,
-3800000,2.0842e-10,
-3900000,1.9224e-10,
-4000000,1.6891e-10,
-4100000,1.4162e-10,
-4200000,1.2046e-10,
-4300000,1.0755e-10,
-4400000,9.9362e-11,
-4500000,9.594e-11,
-4600000,9.3549e-11,
-4700000,9.1584e-11,
-4800000,9.2182e-11,
-4900000,9.3026e-11,
-5000000,9.3909e-11,
-5100000,9.3933e-11,
-5200000,9.4334e-11,
-5300000,9.335e-11,
-5400000,9.2468e-11,
-5500000,8.7794e-11,
-5600000,8.2316e-11,
-5700000,8.4369e-11,
-5800000,8.1922e-11,
-5900000,7.7088e-11,
-6000000,7.6124e-11,
-5950000,7.7538e-11,
-5850000,7.9086e-11,
-5750000,8.1806e-11,
-5650000,8.4562e-11,
-5550000,8.1349e-11,
-5450000,9.1002e-11,
-5350000,9.3e-11,
-5250000,9.4187e-11,
-5150000,9.3836e-11,
-5050000,9.545e-11,
-4950000,9.3534e-11,
-4850000,9.2848e-11,
-4750000,9.2205e-11,
-4650000,9.2956e-11,
-4550000,9.375e-11,
-4450000,9.5988e-11,
-4350000,1.0305e-10,
-4250000,1.1202e-10,
-4150000,1.2922e-10,
-4050000,1.5258e-10,
-3950000,1.8045e-10,
-3850000,2.0023e-10,
-3750000,2.1035e-10,
-3650000,2.129e-10,
-3550000,2.0079e-10,
-3450000,1.8089e-10,
-3350000,1.6102e-10,
-3250000,1.4915e-10,
-3150000,1.4576e-10,
-3050000,1.5967e-10,
-2950000,1.9464e-10,
-2850000,2.6371e-10,
-2750000,3.4489e-10,
-2650000,3.9026e-10,
-2550000,3.9146e-10,
-2450000,3.4415e-10,
-2350000,2.6698e-10,
-2250000,2.0051e-10,
-2150000,1.6289e-10,
-2050000,1.5492e-10,
-1950000,1.6997e-10,
-1850000,2.2106e-10,
-1750000,2.7339e-10,
-1650000,2.9672e-10,
-1550000,2.807e-10,
-1450000,2.2857e-10,
-1350000,1.8208e-10,
-1250000,1.6181e-10,
-1150000,1.671e-10,
-1050000,1.9415e-10,
-950000,2.5377e-10,
-850000,3.6845e-10,
-750000,4.266e-10,
-650000,3.941e-10,
-550000,2.7916e-10,
-450000,2.0071e-10,
-350000,1.6745e-10,
-250000,1.5591e-10,
-150000,1.5564e-10,
-50000,1.6246e-10,
