General parameters:
Start time: 2023             12             30             15             46      28.695126
Finish time: 2023             12             30             16              3       6.096879
Dwell time (ms): 3750.000000
Source chamber pressure: Error-S
Differential chamber pressure: 1.04e-03
Sample chamber pressure: 1.62e-08
Example position (nm): -3771000.000000,-717500.000000,-750000.000000
Rotation angle (udeg): 174999865.000000
==========
Instrument status: 
0:Data Directory:/icon/data/2023_12_defect1_repeat_5um_hbn_sub/
1:Sample:MoS2
2:Comments:no
3:PinholePlate:#C13
4:z_Zero:4200
5:Operator:djw77/nav31/kw570
==========
zscan inputs: 
z_sep:50000
z_range:0 -6000000
data_path:/icon/data/2023_12_defect1_repeat_5um_hbn_sub/
example_pos:-3771000  -717500  -750000
N_dwell:250
sampling_period:15
make_plots:1
m1:0.9867
m2:-0.008
example_pos_norm_1:-3775000  -600000  -750000
==========
Detector params:
Sampling period (ms): 15.000000
N dwell: 250.000000
Filament current (A): 1.540000
Filament emission (mA): 3.338262
Solenoid current (A): NaN
Solenoid shim current (A): NaN
Lens params:
0  685
1  300
2  125
3      -0.002
4       -0.01
5       0.012
6         0.8
7         2.1
8         2.8
9  3500
10  1400
11         0.85
12   0
==========
Data:
z(nm),I(A)
0,1.4279e-10,
-100000,1.4345e-10,
-200000,1.5048e-10,
-300000,1.6559e-10,
-400000,1.9757e-10,
-500000,2.5346e-10,
-600000,3.1355e-10,
-700000,3.2522e-10,
-800000,2.7473e-10,
-900000,2.2097e-10,
-1000000,1.8937e-10,
-1100000,1.7143e-10,
-1200000,1.6647e-10,
-1300000,1.6695e-10,
-1400000,1.7189e-10,
-1500000,1.6954e-10,
-1600000,1.6103e-10,
-1700000,1.5035e-10,
-1800000,1.4626e-10,
-1900000,1.4489e-10,
-2000000,1.4957e-10,
-2100000,1.568e-10,
-2200000,1.5803e-10,
-2300000,1.5562e-10,
-2400000,1.4802e-10,
-2500000,1.3558e-10,
-2600000,1.2651e-10,
-2700000,1.2209e-10,
-2800000,1.2219e-10,
-2900000,1.2379e-10,
-3000000,1.2766e-10,
-3100000,1.2926e-10,
-3200000,1.2731e-10,
-3300000,1.2184e-10,
-3400000,1.1466e-10,
-3500000,1.089e-10,
-3600000,1.048e-10,
-3700000,1.0038e-10,
-3800000,9.7772e-11,
-3900000,9.6527e-11,
-4000000,9.5734e-11,
-4100000,9.3098e-11,
-4200000,9.2532e-11,
-4300000,9.0904e-11,
-4400000,8.8099e-11,
-4500000,8.7346e-11,
-4600000,8.541e-11,
-4700000,8.355e-11,
-4800000,8.2424e-11,
-4900000,8.1272e-11,
-5000000,8.113e-11,
-5100000,8.0358e-11,
-5200000,7.8988e-11,
-5300000,7.8954e-11,
-5400000,7.7163e-11,
-5500000,7.5412e-11,
-5600000,7.4028e-11,
-5700000,7.5966e-11,
-5800000,7.5306e-11,
-5900000,7.4636e-11,
-6000000,7.363e-11,
-5950000,7.4244e-11,
-5850000,7.4924e-11,
-5750000,7.6314e-11,
-5650000,7.5594e-11,
-5550000,7.4592e-11,
-5450000,7.7077e-11,
-5350000,7.8078e-11,
-5250000,7.861e-11,
-5150000,7.9599e-11,
-5050000,7.9534e-11,
-4950000,8.1184e-11,
-4850000,8.1071e-11,
-4750000,8.267e-11,
-4650000,8.4514e-11,
-4550000,8.5737e-11,
-4450000,8.7536e-11,
-4350000,9e-11,
-4250000,9.1088e-11,
-4150000,9.2365e-11,
-4050000,9.4554e-11,
-3950000,9.648e-11,
-3850000,9.733e-11,
-3750000,9.9915e-11,
-3650000,1.0244e-10,
-3550000,1.071e-10,
-3450000,1.1206e-10,
-3350000,1.1783e-10,
-3250000,1.2488e-10,
-3150000,1.2981e-10,
-3050000,1.2924e-10,
-2950000,1.2517e-10,
-2850000,1.2419e-10,
-2750000,1.2247e-10,
-2650000,1.2442e-10,
-2550000,1.3061e-10,
-2450000,1.4152e-10,
-2350000,1.5181e-10,
-2250000,1.5838e-10,
-2150000,1.5722e-10,
-2050000,1.5265e-10,
-1950000,1.4685e-10,
-1850000,1.4394e-10,
-1750000,1.4834e-10,
-1650000,1.5549e-10,
-1550000,1.6731e-10,
-1450000,1.7319e-10,
-1350000,1.6963e-10,
-1250000,1.6622e-10,
-1150000,1.6611e-10,
-1050000,1.7888e-10,
-950000,2.039e-10,
-850000,2.4591e-10,
-750000,3.0483e-10,
-650000,3.2553e-10,
-550000,2.8988e-10,
-450000,2.2117e-10,
-350000,1.8018e-10,
-250000,1.5782e-10,
-150000,1.4652e-10,
-50000,1.4348e-10,
