General parameters:
Start time: 2024              1              8             17             51      38.326802
Finish time: 2024              1              8             18             16      32.951669
Dwell time (ms): 3750.000000
Source chamber pressure: Error-S
Differential chamber pressure: 1.03e-03
Sample chamber pressure: 1.60e-08
Example position (nm): -3769000.000000,-765000.000000,-750000.000000
Rotation angle (udeg): 170000020.000000
==========
Instrument status: 
0:Data Directory:/icon/data/2023_12_defect1_repeat_5um_hbn_sub/
1:Sample:MoS2
2:Comments:no
3:PinholePlate:#C13
4:z_Zero:4200
5:Operator:djw77/nav31/kw570
==========
zscan inputs: 
z_sep:50000
z_range:0 -6000000
data_path:/icon/data/2023_12_defect1_repeat_5um_hbn_sub/
example_pos:-3769000  -765000  -750000
N_dwell:250
sampling_period:15
make_plots:1
m1:0.9867
m2:-0.008
example_pos_norm_1:-3775000  -700000  -750000
example_pos_norm_2:-3810000  -749000  -750000
==========
Detector params:
Sampling period (ms): 15.000000
N dwell: 250.000000
Filament current (A): 1.540000
Filament emission (mA): 3.395718
Solenoid current (A): NaN
Solenoid shim current (A): NaN
Lens params:
0  685
1  300
2  125
3      -0.002
4       -0.01
5       0.012
6         0.8
7         2.1
8         2.8
9  3500
10  1400
11         0.85
12   0
==========
Data:
z(nm),I(A)
0,1.4753e-10,
-100000,1.4864e-10,
-200000,1.5202e-10,
-300000,1.6775e-10,
-400000,1.9946e-10,
-500000,2.5785e-10,
-600000,3.3472e-10,
-700000,3.5537e-10,
-800000,3.0932e-10,
-900000,2.3738e-10,
-1000000,1.9759e-10,
-1100000,1.7206e-10,
-1200000,1.5949e-10,
-1300000,1.5373e-10,
-1400000,1.5114e-10,
-1500000,1.4851e-10,
-1600000,1.4375e-10,
-1700000,1.3976e-10,
-1800000,1.4116e-10,
-1900000,1.483e-10,
-2000000,1.6412e-10,
-2100000,1.8679e-10,
-2200000,1.9937e-10,
-2300000,1.9971e-10,
-2400000,1.8207e-10,
-2500000,1.5799e-10,
-2600000,1.3445e-10,
-2700000,1.2046e-10,
-2800000,1.1466e-10,
-2900000,1.1186e-10,
-3000000,1.1355e-10,
-3100000,1.1203e-10,
-3200000,1.1016e-10,
-3300000,1.0752e-10,
-3400000,1.0494e-10,
-3500000,1.0237e-10,
-3600000,9.9803e-11,
-3700000,9.8838e-11,
-3800000,9.9566e-11,
-3900000,9.9656e-11,
-4000000,1.007e-10,
-4100000,1.0038e-10,
-4200000,9.9873e-11,
-4300000,9.7678e-11,
-4400000,9.5242e-11,
-4500000,9.1055e-11,
-4600000,8.7989e-11,
-4700000,8.4757e-11,
-4800000,8.241e-11,
-4900000,7.9351e-11,
-5000000,7.7529e-11,
-5100000,7.71e-11,
-5200000,7.5598e-11,
-5300000,7.4704e-11,
-5400000,7.3492e-11,
-5500000,7.092e-11,
-5600000,7.0598e-11,
-5700000,7.1074e-11,
-5800000,7.1345e-11,
-5900000,7.0001e-11,
-6000000,6.9753e-11,
-5950000,6.9305e-11,
-5850000,7.0127e-11,
-5750000,7.0858e-11,
-5650000,7.0612e-11,
-5550000,7.0744e-11,
-5450000,7.3105e-11,
-5350000,7.3961e-11,
-5250000,7.5227e-11,
-5150000,7.6122e-11,
-5050000,7.7755e-11,
-4950000,7.9259e-11,
-4850000,8.0208e-11,
-4750000,8.3584e-11,
-4650000,8.727e-11,
-4550000,8.9943e-11,
-4450000,9.3322e-11,
-4350000,9.7031e-11,
-4250000,9.8952e-11,
-4150000,1.0087e-10,
-4050000,1.0135e-10,
-3950000,1.0052e-10,
-3850000,1.0012e-10,
-3750000,1.0043e-10,
-3650000,9.9957e-11,
-3550000,1.0078e-10,
-3450000,1.0406e-10,
-3350000,1.0706e-10,
-3250000,1.0876e-10,
-3150000,1.1095e-10,
-3050000,1.1285e-10,
-2950000,1.1435e-10,
-2850000,1.1492e-10,
-2750000,1.1662e-10,
-2650000,1.2528e-10,
-2550000,1.4205e-10,
-2450000,1.6884e-10,
-2350000,1.9171e-10,
-2250000,2.0305e-10,
-2150000,1.9612e-10,
-2050000,1.7929e-10,
-1950000,1.58e-10,
-1850000,1.4407e-10,
-1750000,1.4075e-10,
-1650000,1.4118e-10,
-1550000,1.4691e-10,
-1450000,1.5125e-10,
-1350000,1.5134e-10,
-1250000,1.5494e-10,
-1150000,1.6228e-10,
-1050000,1.8098e-10,
-950000,2.123e-10,
-850000,2.6813e-10,
-750000,3.3594e-10,
-650000,3.5431e-10,
-550000,3.0698e-10,
-450000,2.3006e-10,
-350000,1.8258e-10,
-250000,1.5978e-10,
-150000,1.5102e-10,
-50000,1.4661e-10,
