General parameters:
Start time: 2023             12             28             19             18        9.27135
Finish time: 2023             12             28             19             34      48.018747
Dwell time (ms): 3750.000000
Source chamber pressure: Error-S
Differential chamber pressure: 1.05e-03
Sample chamber pressure: 1.58e-08
Example position (nm): -3708000.000000,-936500.000000,-750000.000000
Rotation angle (udeg): 149999915.000000
==========
Instrument status: 
0:Data Directory:/icon/data/2023_12_defect1_repeat_5um_hbn_sub/
1:Sample:MoS2
2:Comments:no
3:PinholePlate:#C13
4:z_Zero:4200
5:Operator:djw77/nav31/kw570
==========
zscan inputs: 
z_sep:50000
z_range:0 -6000000
data_path:/icon/data/2023_12_defect1_repeat_5um_hbn_sub/
example_pos:-3708000  -936500  -750000
N_dwell:250
sampling_period:15
make_plots:1
m1:0.9867
m2:-0.008
example_pos_norm_1:-3725000  -850000  -750000
==========
Detector params:
Sampling period (ms): 15.000000
N dwell: 250.000000
Filament current (A): 1.540000
Filament emission (mA): 3.323214
Solenoid current (A): NaN
Solenoid shim current (A): NaN
Lens params:
0  685
1  300
2  125
3      -0.002
4       -0.01
5       0.012
6         0.8
7         2.1
8         2.8
9  3500
10  1400
11         0.85
12   0
==========
Data:
z(nm),I(A)
0,1.8624e-10,
-100000,1.7217e-10,
-200000,1.66e-10,
-300000,1.6907e-10,
-400000,1.842e-10,
-500000,2.2366e-10,
-600000,2.9071e-10,
-700000,3.504e-10,
-800000,3.4414e-10,
-900000,2.7375e-10,
-1000000,2.142e-10,
-1100000,1.7843e-10,
-1200000,1.6209e-10,
-1300000,1.5584e-10,
-1400000,1.6183e-10,
-1500000,1.6794e-10,
-1600000,1.7298e-10,
-1700000,1.7111e-10,
-1800000,1.612e-10,
-1900000,1.4951e-10,
-2000000,1.4606e-10,
-2100000,1.4447e-10,
-2200000,1.462e-10,
-2300000,1.4853e-10,
-2400000,1.5276e-10,
-2500000,1.5546e-10,
-2600000,1.5464e-10,
-2700000,1.5084e-10,
-2800000,1.4853e-10,
-2900000,1.448e-10,
-3000000,1.4236e-10,
-3100000,1.4218e-10,
-3200000,1.4027e-10,
-3300000,1.3535e-10,
-3400000,1.29e-10,
-3500000,1.2545e-10,
-3600000,1.202e-10,
-3700000,1.1408e-10,
-3800000,1.1149e-10,
-3900000,1.0918e-10,
-4000000,1.0882e-10,
-4100000,1.0704e-10,
-4200000,1.0704e-10,
-4300000,1.0647e-10,
-4400000,1.055e-10,
-4500000,1.0475e-10,
-4600000,1.0195e-10,
-4700000,9.8516e-11,
-4800000,9.5161e-11,
-4900000,9.2546e-11,
-5000000,8.9292e-11,
-5100000,8.7195e-11,
-5200000,8.6822e-11,
-5300000,8.3442e-11,
-5400000,8.204e-11,
-5500000,8.135e-11,
-5600000,8.0398e-11,
-5700000,7.9654e-11,
-5800000,7.889e-11,
-5900000,7.7555e-11,
-6000000,7.7864e-11,
-5950000,7.7084e-11,
-5850000,7.8179e-11,
-5750000,7.8143e-11,
-5650000,7.988e-11,
-5550000,8.1173e-11,
-5450000,8.1141e-11,
-5350000,8.301e-11,
-5250000,8.3282e-11,
-5150000,8.6392e-11,
-5050000,8.84e-11,
-4950000,9.1284e-11,
-4850000,9.4204e-11,
-4750000,9.678e-11,
-4650000,9.989e-11,
-4550000,1.0162e-10,
-4450000,1.0483e-10,
-4350000,1.0657e-10,
-4250000,1.0646e-10,
-4150000,1.0564e-10,
-4050000,1.0731e-10,
-3950000,1.0772e-10,
-3850000,1.0989e-10,
-3750000,1.124e-10,
-3650000,1.1681e-10,
-3550000,1.2166e-10,
-3450000,1.2679e-10,
-3350000,1.3334e-10,
-3250000,1.3796e-10,
-3150000,1.423e-10,
-3050000,1.4172e-10,
-2950000,1.4393e-10,
-2850000,1.4515e-10,
-2750000,1.4819e-10,
-2650000,1.5317e-10,
-2550000,1.5437e-10,
-2450000,1.5231e-10,
-2350000,1.5128e-10,
-2250000,1.4829e-10,
-2150000,1.437e-10,
-2050000,1.4441e-10,
-1950000,1.466e-10,
-1850000,1.5712e-10,
-1750000,1.6673e-10,
-1650000,1.7348e-10,
-1550000,1.7254e-10,
-1450000,1.6463e-10,
-1350000,1.5691e-10,
-1250000,1.578e-10,
-1150000,1.6786e-10,
-1050000,1.9476e-10,
-950000,2.4236e-10,
-850000,3.1527e-10,
-750000,3.5349e-10,
-650000,3.2743e-10,
-550000,2.5625e-10,
-450000,2.0043e-10,
-350000,1.7471e-10,
-250000,1.6538e-10,
-150000,1.6836e-10,
-50000,1.778e-10,
