General parameters:
Start time: 2024              1              8             19              3       39.37022
Finish time: 2024              1              8             19             28      32.083514
Dwell time (ms): 3750.000000
Source chamber pressure: Error-S
Differential chamber pressure: 1.01e-03
Sample chamber pressure: 1.62e-08
Example position (nm): -3774000.000000,-676000.000000,-750000.000000
Rotation angle (udeg): 180000110.000000
==========
Instrument status: 
0:Data Directory:/icon/data/2023_12_defect1_repeat_5um_hbn_sub/
1:Sample:MoS2
2:Comments:no
3:PinholePlate:#C13
4:z_Zero:4200
5:Operator:djw77/nav31/kw570
==========
zscan inputs: 
z_sep:50000
z_range:0 -6000000
data_path:/icon/data/2023_12_defect1_repeat_5um_hbn_sub/
example_pos:-3774000  -676000  -750000
N_dwell:250
sampling_period:15
make_plots:1
m1:0.9867
m2:-0.008
example_pos_norm_1:-3775000  -600000  -750000
example_pos_norm_2:-3810000  -650300  -750000
==========
Detector params:
Sampling period (ms): 15.000000
N dwell: 250.000000
Filament current (A): 1.540000
Filament emission (mA): 3.395718
Solenoid current (A): NaN
Solenoid shim current (A): NaN
Lens params:
0  685
1  300
2  125
3      -0.002
4       -0.01
5       0.012
6         0.8
7         2.1
8         2.8
9  3500
10  1400
11         0.85
12   0
==========
Data:
z(nm),I(A)
0,1.3576e-10,
-100000,1.3874e-10,
-200000,1.488e-10,
-300000,1.7076e-10,
-400000,2.0929e-10,
-500000,2.7788e-10,
-600000,3.4448e-10,
-700000,3.4841e-10,
-800000,2.8351e-10,
-900000,2.2252e-10,
-1000000,1.9098e-10,
-1100000,1.792e-10,
-1200000,1.7974e-10,
-1300000,1.9626e-10,
-1400000,2.1412e-10,
-1500000,2.1836e-10,
-1600000,2.0187e-10,
-1700000,1.7608e-10,
-1800000,1.5639e-10,
-1900000,1.4577e-10,
-2000000,1.4271e-10,
-2100000,1.4369e-10,
-2200000,1.4435e-10,
-2300000,1.4127e-10,
-2400000,1.3667e-10,
-2500000,1.3282e-10,
-2600000,1.2831e-10,
-2700000,1.2767e-10,
-2800000,1.2952e-10,
-2900000,1.3519e-10,
-3000000,1.4091e-10,
-3100000,1.4482e-10,
-3200000,1.4135e-10,
-3300000,1.3351e-10,
-3400000,1.2267e-10,
-3500000,1.111e-10,
-3600000,1.0328e-10,
-3700000,9.7321e-11,
-3800000,9.4526e-11,
-3900000,9.2051e-11,
-4000000,8.9804e-11,
-4100000,8.8451e-11,
-4200000,8.7047e-11,
-4300000,8.7922e-11,
-4400000,8.5584e-11,
-4500000,8.3328e-11,
-4600000,8.0808e-11,
-4700000,7.952e-11,
-4800000,7.9816e-11,
-4900000,7.8504e-11,
-5000000,7.6736e-11,
-5100000,7.5904e-11,
-5200000,7.5721e-11,
-5300000,7.4842e-11,
-5400000,7.3167e-11,
-5500000,7.0384e-11,
-5600000,6.8468e-11,
-5700000,7.084e-11,
-5800000,7.1369e-11,
-5900000,7.087e-11,
-6000000,6.8987e-11,
-5950000,7.0447e-11,
-5850000,7.0866e-11,
-5750000,7.1431e-11,
-5650000,6.9786e-11,
-5550000,6.8176e-11,
-5450000,7.1979e-11,
-5350000,7.2889e-11,
-5250000,7.469e-11,
-5150000,7.5833e-11,
-5050000,7.6339e-11,
-4950000,7.7375e-11,
-4850000,7.7099e-11,
-4750000,7.964e-11,
-4650000,8.1886e-11,
-4550000,8.2176e-11,
-4450000,8.4507e-11,
-4350000,8.594e-11,
-4250000,8.6672e-11,
-4150000,8.9439e-11,
-4050000,9.0173e-11,
-3950000,9.0574e-11,
-3850000,9.3045e-11,
-3750000,9.6058e-11,
-3650000,1.0018e-10,
-3550000,1.0738e-10,
-3450000,1.1658e-10,
-3350000,1.2712e-10,
-3250000,1.3806e-10,
-3150000,1.4344e-10,
-3050000,1.4298e-10,
-2950000,1.3823e-10,
-2850000,1.3317e-10,
-2750000,1.2916e-10,
-2650000,1.2738e-10,
-2550000,1.3134e-10,
-2450000,1.3415e-10,
-2350000,1.4012e-10,
-2250000,1.435e-10,
-2150000,1.4438e-10,
-2050000,1.4398e-10,
-1950000,1.4347e-10,
-1850000,1.487e-10,
-1750000,1.6257e-10,
-1650000,1.8768e-10,
-1550000,2.111e-10,
-1450000,2.1843e-10,
-1350000,2.0842e-10,
-1250000,1.8799e-10,
-1150000,1.7609e-10,
-1050000,1.8369e-10,
-950000,2.0526e-10,
-850000,2.4639e-10,
-750000,3.1445e-10,
-650000,3.5459e-10,
-550000,3.2766e-10,
-450000,2.4754e-10,
-350000,1.9089e-10,
-250000,1.5922e-10,
-150000,1.441e-10,
-50000,1.3725e-10,
