General parameters:
Start time: 2024              1              8             16             15       2.059017
Finish time: 2024              1              8             16             39      54.214155
Dwell time (ms): 3750.000000
Source chamber pressure: Error-S
Differential chamber pressure: 1.03e-03
Sample chamber pressure: 1.60e-08
Example position (nm): -3752000.000000,-849000.000000,-750000.000000
Rotation angle (udeg): 159999960.000000
==========
Instrument status: 
0:Data Directory:/icon/data/2023_12_defect1_repeat_5um_hbn_sub/
1:Sample:MoS2
2:Comments:no
3:PinholePlate:#C13
4:z_Zero:4200
5:Operator:djw77/nav31/kw570
==========
zscan inputs: 
z_sep:50000
z_range:0 -6000000
data_path:/icon/data/2023_12_defect1_repeat_5um_hbn_sub/
example_pos:-3752000  -849000  -750000
N_dwell:250
sampling_period:15
make_plots:1
m1:0.9867
m2:-0.008
example_pos_norm_1:-3775000  -775000  -750000
example_pos_norm_2:-3800000  -856500  -750000
==========
Detector params:
Sampling period (ms): 15.000000
N dwell: 250.000000
Filament current (A): 1.540000
Filament emission (mA): 3.398112
Solenoid current (A): NaN
Solenoid shim current (A): NaN
Lens params:
0  685
1  300
2  125
3      -0.002
4       -0.01
5       0.012
6         0.8
7         2.1
8         2.8
9  3500
10  1400
11         0.85
12   0
==========
Data:
z(nm),I(A)
0,1.7067e-10,
-100000,1.6377e-10,
-200000,1.6031e-10,
-300000,1.6828e-10,
-400000,1.9063e-10,
-500000,2.3771e-10,
-600000,3.169e-10,
-700000,3.5996e-10,
-800000,3.3388e-10,
-900000,2.5975e-10,
-1000000,2.0658e-10,
-1100000,1.7378e-10,
-1200000,1.5273e-10,
-1300000,1.4571e-10,
-1400000,1.3987e-10,
-1500000,1.3688e-10,
-1600000,1.3715e-10,
-1700000,1.3715e-10,
-1800000,1.3866e-10,
-1900000,1.4726e-10,
-2000000,1.6456e-10,
-2100000,1.857e-10,
-2200000,2.0164e-10,
-2300000,2.0343e-10,
-2400000,1.8463e-10,
-2500000,1.6215e-10,
-2600000,1.4561e-10,
-2700000,1.3618e-10,
-2800000,1.3692e-10,
-2900000,1.441e-10,
-3000000,1.5568e-10,
-3100000,1.6876e-10,
-3200000,1.7577e-10,
-3300000,1.7351e-10,
-3400000,1.6166e-10,
-3500000,1.4438e-10,
-3600000,1.2496e-10,
-3700000,1.1277e-10,
-3800000,1.0292e-10,
-3900000,9.7792e-11,
-4000000,9.5072e-11,
-4100000,9.3206e-11,
-4200000,9.1705e-11,
-4300000,8.965e-11,
-4400000,8.7894e-11,
-4500000,8.5866e-11,
-4600000,8.5587e-11,
-4700000,8.4477e-11,
-4800000,8.1392e-11,
-4900000,8.0716e-11,
-5000000,7.9093e-11,
-5100000,7.767e-11,
-5200000,7.6634e-11,
-5300000,7.5348e-11,
-5400000,7.5405e-11,
-5500000,7.3801e-11,
-5600000,7.2639e-11,
-5700000,7.258e-11,
-5800000,7.1847e-11,
-5900000,7.1667e-11,
-6000000,7.1147e-11,
-5950000,7.1718e-11,
-5850000,7.2656e-11,
-5750000,7.3e-11,
-5650000,7.3681e-11,
-5550000,7.394e-11,
-5450000,7.4752e-11,
-5350000,7.4504e-11,
-5250000,7.6224e-11,
-5150000,7.778e-11,
-5050000,7.8207e-11,
-4950000,7.9164e-11,
-4850000,8.087e-11,
-4750000,8.3636e-11,
-4650000,8.4045e-11,
-4550000,8.595e-11,
-4450000,8.7669e-11,
-4350000,8.838e-11,
-4250000,9.0072e-11,
-4150000,9.1975e-11,
-4050000,9.3892e-11,
-3950000,9.7714e-11,
-3850000,9.8073e-11,
-3750000,1.0519e-10,
-3650000,1.154e-10,
-3550000,1.3192e-10,
-3450000,1.505e-10,
-3350000,1.6729e-10,
-3250000,1.7517e-10,
-3150000,1.7249e-10,
-3050000,1.6341e-10,
-2950000,1.5104e-10,
-2850000,1.4083e-10,
-2750000,1.347e-10,
-2650000,1.3864e-10,
-2550000,1.4988e-10,
-2450000,1.7178e-10,
-2350000,1.9316e-10,
-2250000,2.0389e-10,
-2150000,1.9716e-10,
-2050000,1.7681e-10,
-1950000,1.5647e-10,
-1850000,1.4274e-10,
-1750000,1.3809e-10,
-1650000,1.3648e-10,
-1550000,1.3823e-10,
-1450000,1.3891e-10,
-1350000,1.4255e-10,
-1250000,1.4823e-10,
-1150000,1.6043e-10,
-1050000,1.832e-10,
-950000,2.247e-10,
-850000,2.9151e-10,
-750000,3.5348e-10,
-650000,3.5081e-10,
-550000,2.8277e-10,
-450000,2.1441e-10,
-350000,1.7991e-10,
-250000,1.6284e-10,
-150000,1.6146e-10,
-50000,1.6594e-10,
