General parameters:
Start time: 2024              1              2             14             39      42.366746
Finish time: 2024              1              2             14             56      20.818994
Dwell time (ms): 3750.000000
Source chamber pressure: Error-S
Differential chamber pressure: 1.05e-03
Sample chamber pressure: 1.60e-08
Example position (nm): -3644000.000000,-1035000.000000,-750000.000000
Rotation angle (udeg): 137500025.000000
==========
Instrument status: 
0:Data Directory:/icon/data/2023_12_defect1_repeat_5um_hbn_sub/
1:Sample:MoS2
2:Comments:no
3:PinholePlate:#C13
4:z_Zero:4200
5:Operator:djw77/nav31/kw570
==========
zscan inputs: 
z_sep:50000
z_range:0 -6000000
data_path:/icon/data/2023_12_defect1_repeat_5um_hbn_sub/
example_pos:-3644000 -1035000  -750000
N_dwell:250
sampling_period:15
make_plots:1
m1:0.9867
m2:-0.008
example_pos_norm_1:-3675000  -950000  -750000
==========
Detector params:
Sampling period (ms): 15.000000
N dwell: 250.000000
Filament current (A): 1.540000
Filament emission (mA): 3.358440
Solenoid current (A): NaN
Solenoid shim current (A): NaN
Lens params:
0  685
1  300
2  125
3      -0.002
4       -0.01
5       0.012
6         0.8
7         2.1
8         2.8
9  3500
10  1400
11         0.85
12   0
==========
Data:
z(nm),I(A)
0,1.5792e-10,
-100000,1.5092e-10,
-200000,1.4879e-10,
-300000,1.4952e-10,
-400000,1.6474e-10,
-500000,1.9597e-10,
-600000,2.5617e-10,
-700000,3.2605e-10,
-800000,3.4238e-10,
-900000,2.9499e-10,
-1000000,2.225e-10,
-1100000,1.7987e-10,
-1200000,1.5786e-10,
-1300000,1.5898e-10,
-1400000,1.7769e-10,
-1500000,2.1635e-10,
-1600000,2.4644e-10,
-1700000,2.5128e-10,
-1800000,2.2694e-10,
-1900000,1.8938e-10,
-2000000,1.5437e-10,
-2100000,1.4561e-10,
-2200000,1.5715e-10,
-2300000,1.8968e-10,
-2400000,2.3779e-10,
-2500000,2.8604e-10,
-2600000,3.1205e-10,
-2700000,3.0388e-10,
-2800000,2.6539e-10,
-2900000,2.137e-10,
-3000000,1.6924e-10,
-3100000,1.4469e-10,
-3200000,1.3599e-10,
-3300000,1.3706e-10,
-3400000,1.4289e-10,
-3500000,1.5277e-10,
-3600000,1.6099e-10,
-3700000,1.6423e-10,
-3800000,1.626e-10,
-3900000,1.5259e-10,
-4000000,1.3692e-10,
-4100000,1.2358e-10,
-4200000,1.1133e-10,
-4300000,1.0149e-10,
-4400000,9.5083e-11,
-4500000,9.1001e-11,
-4600000,8.8565e-11,
-4700000,8.8448e-11,
-4800000,8.7039e-11,
-4900000,8.5479e-11,
-5000000,8.5036e-11,
-5100000,8.3233e-11,
-5200000,8.364e-11,
-5300000,8.1849e-11,
-5400000,8.0798e-11,
-5500000,7.8629e-11,
-5600000,7.6681e-11,
-5700000,7.5945e-11,
-5800000,7.438e-11,
-5900000,7.3473e-11,
-6000000,7.3137e-11,
-5950000,7.2642e-11,
-5850000,7.4273e-11,
-5750000,7.506e-11,
-5650000,7.7427e-11,
-5550000,7.7616e-11,
-5450000,8.0703e-11,
-5350000,8.1453e-11,
-5250000,8.2277e-11,
-5150000,8.3068e-11,
-5050000,8.4128e-11,
-4950000,8.4906e-11,
-4850000,8.5643e-11,
-4750000,8.6516e-11,
-4650000,8.6781e-11,
-4550000,9.0157e-11,
-4450000,9.2924e-11,
-4350000,9.7302e-11,
-4250000,1.0605e-10,
-4150000,1.1772e-10,
-4050000,1.3052e-10,
-3950000,1.4553e-10,
-3850000,1.574e-10,
-3750000,1.6497e-10,
-3650000,1.6342e-10,
-3550000,1.5643e-10,
-3450000,1.4698e-10,
-3350000,1.3937e-10,
-3250000,1.3471e-10,
-3150000,1.3845e-10,
-3050000,1.5464e-10,
-2950000,1.8767e-10,
-2850000,2.3842e-10,
-2750000,2.8736e-10,
-2650000,3.1079e-10,
-2550000,3.0374e-10,
-2450000,2.6254e-10,
-2350000,2.1079e-10,
-2250000,1.6918e-10,
-2150000,1.4991e-10,
-2050000,1.4672e-10,
-1950000,1.6846e-10,
-1850000,2.0911e-10,
-1750000,2.4168e-10,
-1650000,2.5241e-10,
-1550000,2.3393e-10,
-1450000,1.9433e-10,
-1350000,1.6571e-10,
-1250000,1.5743e-10,
-1150000,1.6662e-10,
-1050000,1.9693e-10,
-950000,2.5488e-10,
-850000,3.2663e-10,
-750000,3.4256e-10,
-650000,2.9756e-10,
-550000,2.2243e-10,
-450000,1.7588e-10,
-350000,1.5576e-10,
-250000,1.4921e-10,
-150000,1.484e-10,
-50000,1.5367e-10,
