General parameters:
Start time: 2023             12             28             14             45      10.055419
Finish time: 2023             12             28             15              1      50.028124
Dwell time (ms): 3750.000000
Source chamber pressure: Error-S
Differential chamber pressure: 1.05e-03
Sample chamber pressure: 1.58e-08
Example position (nm): -3376000.000000,-1206000.000000,-750000.000000
Rotation angle (udeg): 105000005.000000
==========
Instrument status: 
0:Data Directory:/icon/data/2023_12_defect1_repeat_5um_hbn_sub/
1:Sample:MoS2
2:Comments:no
3:PinholePlate:#C13
4:z_Zero:4200
5:Operator:djw77/nav31/kw570
==========
zscan inputs: 
z_sep:50000
z_range:0 -6000000
data_path:/icon/data/2023_12_defect1_repeat_5um_hbn_sub/
example_pos:-3376000 -1206000  -750000
N_dwell:250
sampling_period:15
make_plots:1
m1:0.9867
m2:-0.008
example_pos_norm_1:-3300000 -1150000  -750000
==========
Detector params:
Sampling period (ms): 15.000000
N dwell: 250.000000
Filament current (A): 1.540000
Filament emission (mA): 3.325950
Solenoid current (A): NaN
Solenoid shim current (A): NaN
Lens params:
0  685
1  300
2  125
3      -0.002
4       -0.01
5       0.012
6         0.8
7         2.1
8         2.8
9  3500
10  1400
11         0.85
12   0
==========
Data:
z(nm),I(A)
0,1.7281e-10,
-100000,1.6241e-10,
-200000,1.5566e-10,
-300000,1.5572e-10,
-400000,1.6575e-10,
-500000,1.975e-10,
-600000,2.6488e-10,
-700000,3.791e-10,
-800000,4.4531e-10,
-900000,4.3195e-10,
-1000000,3.6253e-10,
-1100000,2.6127e-10,
-1200000,1.9798e-10,
-1300000,1.6801e-10,
-1400000,1.5311e-10,
-1500000,1.4578e-10,
-1600000,1.4083e-10,
-1700000,1.3902e-10,
-1800000,1.3708e-10,
-1900000,1.3668e-10,
-2000000,1.4048e-10,
-2100000,1.4817e-10,
-2200000,1.6203e-10,
-2300000,1.7723e-10,
-2400000,1.8323e-10,
-2500000,1.7785e-10,
-2600000,1.6096e-10,
-2700000,1.4294e-10,
-2800000,1.2795e-10,
-2900000,1.2002e-10,
-3000000,1.1792e-10,
-3100000,1.1907e-10,
-3200000,1.1961e-10,
-3300000,1.2265e-10,
-3400000,1.2246e-10,
-3500000,1.2133e-10,
-3600000,1.1652e-10,
-3700000,1.1218e-10,
-3800000,1.0694e-10,
-3900000,1.0317e-10,
-4000000,9.8688e-11,
-4100000,9.7738e-11,
-4200000,9.6822e-11,
-4300000,9.4509e-11,
-4400000,9.3102e-11,
-4500000,9.1652e-11,
-4600000,9.0078e-11,
-4700000,8.8003e-11,
-4800000,8.6269e-11,
-4900000,8.6778e-11,
-5000000,8.3925e-11,
-5100000,8.3498e-11,
-5200000,8.2211e-11,
-5300000,8.1288e-11,
-5400000,7.9543e-11,
-5500000,7.949e-11,
-5600000,7.751e-11,
-5700000,7.7377e-11,
-5800000,7.658e-11,
-5900000,7.7363e-11,
-6000000,7.6776e-11,
-5950000,7.62e-11,
-5850000,7.615e-11,
-5750000,7.7832e-11,
-5650000,7.751e-11,
-5550000,7.9025e-11,
-5450000,7.9242e-11,
-5350000,8.0149e-11,
-5250000,8.1654e-11,
-5150000,8.2746e-11,
-5050000,8.3278e-11,
-4950000,8.4644e-11,
-4850000,8.5558e-11,
-4750000,8.7788e-11,
-4650000,8.8866e-11,
-4550000,9.013e-11,
-4450000,9.215e-11,
-4350000,9.4223e-11,
-4250000,9.5394e-11,
-4150000,9.7362e-11,
-4050000,9.9031e-11,
-3950000,1.008e-10,
-3850000,1.0403e-10,
-3750000,1.1013e-10,
-3650000,1.1454e-10,
-3550000,1.1922e-10,
-3450000,1.2249e-10,
-3350000,1.226e-10,
-3250000,1.2256e-10,
-3150000,1.1944e-10,
-3050000,1.1992e-10,
-2950000,1.2047e-10,
-2850000,1.2322e-10,
-2750000,1.3433e-10,
-2650000,1.5265e-10,
-2550000,1.6918e-10,
-2450000,1.8006e-10,
-2350000,1.8259e-10,
-2250000,1.7045e-10,
-2150000,1.5409e-10,
-2050000,1.4434e-10,
-1950000,1.3963e-10,
-1850000,1.369e-10,
-1750000,1.3801e-10,
-1650000,1.4114e-10,
-1550000,1.4385e-10,
-1450000,1.4933e-10,
-1350000,1.6065e-10,
-1250000,1.8067e-10,
-1150000,2.2365e-10,
-1050000,3.077e-10,
-950000,4.1378e-10,
-850000,4.5674e-10,
-750000,4.2158e-10,
-650000,3.2177e-10,
-550000,2.2891e-10,
-450000,1.7884e-10,
-350000,1.5846e-10,
-250000,1.5582e-10,
-150000,1.5913e-10,
-50000,1.6654e-10,
