General parameters:
Start time: 2023             12             28             15             10      38.095581
Finish time: 2023             12             28             15             27      17.420336
Dwell time (ms): 3750.000000
Source chamber pressure: Error-S
Differential chamber pressure: 1.04e-03
Sample chamber pressure: 1.58e-08
Example position (nm): -3419000.000000,-1190000.000000,-750000.000000
Rotation angle (udeg): 109999950.000000
==========
Instrument status: 
0:Data Directory:/icon/data/2023_12_defect1_repeat_5um_hbn_sub/
1:Sample:MoS2
2:Comments:no
3:PinholePlate:#C13
4:z_Zero:4200
5:Operator:djw77/nav31/kw570
==========
zscan inputs: 
z_sep:50000
z_range:0 -6000000
data_path:/icon/data/2023_12_defect1_repeat_5um_hbn_sub/
example_pos:-3419000 -1190000  -750000
N_dwell:250
sampling_period:15
make_plots:1
m1:0.9867
m2:-0.008
example_pos_norm_1:-3350000 -1150000  -750000
==========
Detector params:
Sampling period (ms): 15.000000
N dwell: 250.000000
Filament current (A): 1.540000
Filament emission (mA): 3.326292
Solenoid current (A): NaN
Solenoid shim current (A): NaN
Lens params:
0  685
1  300
2  125
3      -0.002
4       -0.01
5       0.012
6         0.8
7         2.1
8         2.8
9  3500
10  1400
11         0.85
12   0
==========
Data:
z(nm),I(A)
0,1.5883e-10,
-100000,1.5337e-10,
-200000,1.518e-10,
-300000,1.5365e-10,
-400000,1.6681e-10,
-500000,1.9982e-10,
-600000,2.6842e-10,
-700000,3.7751e-10,
-800000,4.3604e-10,
-900000,4.1993e-10,
-1000000,3.3944e-10,
-1100000,2.504e-10,
-1200000,1.939e-10,
-1300000,1.6626e-10,
-1400000,1.5345e-10,
-1500000,1.4489e-10,
-1600000,1.3971e-10,
-1700000,1.3683e-10,
-1800000,1.3465e-10,
-1900000,1.3543e-10,
-2000000,1.375e-10,
-2100000,1.4845e-10,
-2200000,1.6481e-10,
-2300000,1.8506e-10,
-2400000,1.927e-10,
-2500000,1.883e-10,
-2600000,1.7537e-10,
-2700000,1.5078e-10,
-2800000,1.312e-10,
-2900000,1.2225e-10,
-3000000,1.1727e-10,
-3100000,1.1477e-10,
-3200000,1.147e-10,
-3300000,1.1347e-10,
-3400000,1.1222e-10,
-3500000,1.0968e-10,
-3600000,1.067e-10,
-3700000,1.0513e-10,
-3800000,1.0269e-10,
-3900000,1.0113e-10,
-4000000,1.0018e-10,
-4100000,1.0157e-10,
-4200000,1.02e-10,
-4300000,1.0097e-10,
-4400000,1.0141e-10,
-4500000,1.0063e-10,
-4600000,9.9881e-11,
-4700000,9.6457e-11,
-4800000,9.3954e-11,
-4900000,9.017e-11,
-5000000,8.8058e-11,
-5100000,8.4693e-11,
-5200000,8.2435e-11,
-5300000,8.1519e-11,
-5400000,7.9625e-11,
-5500000,7.7621e-11,
-5600000,7.8375e-11,
-5700000,7.6707e-11,
-5800000,7.7179e-11,
-5900000,7.6715e-11,
-6000000,7.6179e-11,
-5950000,7.6052e-11,
-5850000,7.6278e-11,
-5750000,7.6754e-11,
-5650000,7.7379e-11,
-5550000,7.7393e-11,
-5450000,7.9555e-11,
-5350000,8.1807e-11,
-5250000,8.2807e-11,
-5150000,8.3934e-11,
-5050000,8.6182e-11,
-4950000,8.8694e-11,
-4850000,9.1868e-11,
-4750000,9.5256e-11,
-4650000,9.6846e-11,
-4550000,9.9281e-11,
-4450000,1.0157e-10,
-4350000,1.0256e-10,
-4250000,1.0134e-10,
-4150000,1.0061e-10,
-4050000,1.01e-10,
-3950000,1.0097e-10,
-3850000,1.0246e-10,
-3750000,1.0424e-10,
-3650000,1.0609e-10,
-3550000,1.0805e-10,
-3450000,1.1092e-10,
-3350000,1.1218e-10,
-3250000,1.1267e-10,
-3150000,1.1415e-10,
-3050000,1.1574e-10,
-2950000,1.1981e-10,
-2850000,1.2545e-10,
-2750000,1.3996e-10,
-2650000,1.6288e-10,
-2550000,1.815e-10,
-2450000,1.9056e-10,
-2350000,1.8799e-10,
-2250000,1.747e-10,
-2150000,1.564e-10,
-2050000,1.4234e-10,
-1950000,1.3491e-10,
-1850000,1.3513e-10,
-1750000,1.3538e-10,
-1650000,1.3916e-10,
-1550000,1.438e-10,
-1450000,1.4848e-10,
-1350000,1.5803e-10,
-1250000,1.7744e-10,
-1150000,2.148e-10,
-1050000,2.8979e-10,
-950000,3.952e-10,
-850000,4.4171e-10,
-750000,4.1528e-10,
-650000,3.2318e-10,
-550000,2.292e-10,
-450000,1.7947e-10,
-350000,1.5886e-10,
-250000,1.5167e-10,
-150000,1.5169e-10,
-50000,1.5455e-10,
