General parameters:
Start time: 2024              1              5             16              9      41.156243
Finish time: 2024              1              5             16             34      37.653607
Dwell time (ms): 3750.000000
Source chamber pressure: Error-S
Differential chamber pressure: 1.05e-03
Sample chamber pressure: 1.60e-08
Example position (nm): -3271000.000000,-1224000.000000,-750000.000000
Rotation angle (udeg): 95000050.000000
==========
Instrument status: 
0:Data Directory:/icon/data/2023_12_defect1_repeat_5um_hbn_sub/
1:Sample:MoS2
2:Comments:no
3:PinholePlate:#C13
4:z_Zero:4200
5:Operator:djw77/nav31/kw570
==========
zscan inputs: 
z_sep:50000
z_range:0 -6000000
data_path:/icon/data/2023_12_defect1_repeat_5um_hbn_sub/
example_pos:-3271000 -1224000  -750000
N_dwell:250
sampling_period:15
make_plots:1
m1:0.9867
m2:-0.008
example_pos_norm_1:-3360000 -1200000  -750000
example_pos_norm_2:-3291000 -1261000  -750000
==========
Detector params:
Sampling period (ms): 15.000000
N dwell: 250.000000
Filament current (A): 1.540000
Filament emission (mA): 3.373488
Solenoid current (A): NaN
Solenoid shim current (A): NaN
Lens params:
0  685
1  300
2  125
3      -0.002
4       -0.01
5       0.012
6         0.8
7         2.1
8         2.8
9  3500
10  1400
11         0.85
12   0
==========
Data:
z(nm),I(A)
0,2.1293e-10,
-100000,1.8802e-10,
-200000,1.6927e-10,
-300000,1.6168e-10,
-400000,1.676e-10,
-500000,1.9924e-10,
-600000,2.7142e-10,
-700000,3.944e-10,
-800000,4.639e-10,
-900000,4.6451e-10,
-1000000,3.9363e-10,
-1100000,2.8686e-10,
-1200000,2.1731e-10,
-1300000,1.7959e-10,
-1400000,1.7068e-10,
-1500000,1.7115e-10,
-1600000,1.8041e-10,
-1700000,1.8914e-10,
-1800000,1.8684e-10,
-1900000,1.7159e-10,
-2000000,1.5653e-10,
-2100000,1.4632e-10,
-2200000,1.4189e-10,
-2300000,1.3996e-10,
-2400000,1.4179e-10,
-2500000,1.4199e-10,
-2600000,1.4174e-10,
-2700000,1.4068e-10,
-2800000,1.3558e-10,
-2900000,1.3481e-10,
-3000000,1.327e-10,
-3100000,1.3228e-10,
-3200000,1.3262e-10,
-3300000,1.3306e-10,
-3400000,1.3059e-10,
-3500000,1.2586e-10,
-3600000,1.1816e-10,
-3700000,1.1133e-10,
-3800000,1.0586e-10,
-3900000,1.0211e-10,
-4000000,9.8226e-11,
-4100000,9.677e-11,
-4200000,9.485e-11,
-4300000,9.4862e-11,
-4400000,9.4911e-11,
-4500000,9.421e-11,
-4600000,9.4226e-11,
-4700000,9.2745e-11,
-4800000,9.1735e-11,
-4900000,9.0484e-11,
-5000000,8.9105e-11,
-5100000,8.7038e-11,
-5200000,8.368e-11,
-5300000,8.1324e-11,
-5400000,8.0684e-11,
-5500000,7.7459e-11,
-5600000,7.7184e-11,
-5700000,7.5753e-11,
-5800000,7.507e-11,
-5900000,7.471e-11,
-6000000,7.3727e-11,
-5950000,7.347e-11,
-5850000,7.4548e-11,
-5750000,7.5469e-11,
-5650000,7.6567e-11,
-5550000,7.7024e-11,
-5450000,7.9272e-11,
-5350000,8.1397e-11,
-5250000,8.3472e-11,
-5150000,8.536e-11,
-5050000,8.7353e-11,
-4950000,9.0179e-11,
-4850000,9.0354e-11,
-4750000,9.3318e-11,
-4650000,9.4108e-11,
-4550000,9.5082e-11,
-4450000,9.6108e-11,
-4350000,9.4909e-11,
-4250000,9.5051e-11,
-4150000,9.5446e-11,
-4050000,9.7557e-11,
-3950000,9.8941e-11,
-3850000,1.0286e-10,
-3750000,1.0987e-10,
-3650000,1.1587e-10,
-3550000,1.2285e-10,
-3450000,1.2837e-10,
-3350000,1.3215e-10,
-3250000,1.3434e-10,
-3150000,1.3365e-10,
-3050000,1.3281e-10,
-2950000,1.3415e-10,
-2850000,1.3685e-10,
-2750000,1.3893e-10,
-2650000,1.4241e-10,
-2550000,1.4231e-10,
-2450000,1.4277e-10,
-2350000,1.4197e-10,
-2250000,1.4284e-10,
-2150000,1.4178e-10,
-2050000,1.4958e-10,
-1950000,1.637e-10,
-1850000,1.7985e-10,
-1750000,1.8959e-10,
-1650000,1.881e-10,
-1550000,1.7795e-10,
-1450000,1.7024e-10,
-1350000,1.7353e-10,
-1250000,1.9316e-10,
-1150000,2.4176e-10,
-1050000,3.3115e-10,
-950000,4.3322e-10,
-850000,4.7568e-10,
-750000,4.4748e-10,
-650000,3.4438e-10,
-550000,2.3677e-10,
-450000,1.8358e-10,
-350000,1.6331e-10,
-250000,1.6423e-10,
-150000,1.7778e-10,
-50000,1.9858e-10,
