General parameters:
Start time: 2023             12             19             16             26      48.319502
Finish time: 2023             12             19             16             40      45.710736
Dwell time (ms): 3750.000000
Source chamber pressure: Error-S
Differential chamber pressure: 1.05e-03
Sample chamber pressure: 1.66e-08
Example position (nm): -3580000.000000,-1080000.000000,-750000.000000
Rotation angle (udeg): 130000005.000000
==========
Instrument status: 
0:Data Directory:/icon/data/2023_12_defect1_repeat_5um_hbn_sub/
1:Sample:MoS2
2:Comments:no
3:PinholePlate:#C13
4:z_Zero:4200
5:Operator:djw77/nav31/kw570
==========
zscan inputs: 
z_sep:30000
z_range:0 -6000000
data_path:/icon/data/2023_12_defect1_repeat_5um_hbn_sub/
example_pos:-3580000 -1080000  -750000
N_dwell:250
sampling_period:15
make_plots:1
m1:0.98666
m2:-0.0080272
==========
Detector params:
Sampling period (ms): 15.000000
N dwell: 250.000000
Filament current (A): 1.540000
Filament emission (mA): 3.070818
Solenoid current (A): NaN
Solenoid shim current (A): NaN
Lens params:
0  685
1  300
2  125
3      -0.002
4       -0.01
5       0.012
6         0.8
7         2.1
8         2.8
9  3500
10  1400
11         0.85
12   0
==========
Data:
z(nm),I(A)
0,1.7267e-10,
-60000,1.7209e-10,
-120000,1.7306e-10,
-180000,1.7291e-10,
-240000,1.7162e-10,
-300000,1.7581e-10,
-360000,1.8088e-10,
-420000,1.8833e-10,
-480000,2.016e-10,
-540000,2.203e-10,
-600000,2.4426e-10,
-660000,2.7623e-10,
-720000,3.004e-10,
-780000,3.1678e-10,
-840000,3.1506e-10,
-900000,3.0122e-10,
-960000,2.7366e-10,
-1020000,2.435e-10,
-1080000,2.2371e-10,
-1140000,2.075e-10,
-1200000,1.9819e-10,
-1260000,1.914e-10,
-1320000,1.8931e-10,
-1380000,1.9229e-10,
-1440000,2.0029e-10,
-1500000,2.1412e-10,
-1560000,2.2593e-10,
-1620000,2.3411e-10,
-1680000,2.3542e-10,
-1740000,2.3178e-10,
-1800000,2.225e-10,
-1860000,2.0711e-10,
-1920000,1.9228e-10,
-1980000,1.7801e-10,
-2040000,1.7024e-10,
-2100000,1.6771e-10,
-2160000,1.6415e-10,
-2220000,1.6702e-10,
-2280000,1.7263e-10,
-2340000,1.7638e-10,
-2400000,1.8415e-10,
-2460000,1.9036e-10,
-2520000,1.962e-10,
-2580000,1.9962e-10,
-2640000,1.9785e-10,
-2700000,1.9343e-10,
-2760000,1.8482e-10,
-2820000,1.7862e-10,
-2880000,1.7075e-10,
-2940000,1.6239e-10,
-3000000,1.5738e-10,
-3060000,1.534e-10,
-3120000,1.4913e-10,
-3180000,1.4789e-10,
-3240000,1.4605e-10,
-3300000,1.429e-10,
-3360000,1.4171e-10,
-3420000,1.4008e-10,
-3480000,1.3834e-10,
-3540000,1.3747e-10,
-3600000,1.3383e-10,
-3660000,1.321e-10,
-3720000,1.2905e-10,
-3780000,1.2728e-10,
-3840000,1.2463e-10,
-3900000,1.2388e-10,
-3960000,1.2214e-10,
-4020000,1.1997e-10,
-4080000,1.1919e-10,
-4140000,1.1778e-10,
-4200000,1.1786e-10,
-4260000,1.167e-10,
-4320000,1.1509e-10,
-4380000,1.1386e-10,
-4440000,1.1343e-10,
-4500000,1.1322e-10,
-4560000,1.1178e-10,
-4620000,1.1179e-10,
-4680000,1.1068e-10,
-4740000,1.0932e-10,
-4800000,1.0784e-10,
-4860000,1.0551e-10,
-4920000,1.0455e-10,
-4980000,1.033e-10,
-5040000,1.0272e-10,
-5100000,1.0048e-10,
-5160000,9.9224e-11,
-5220000,9.8633e-11,
-5280000,9.7236e-11,
-5340000,9.605e-11,
-5400000,9.4374e-11,
-5460000,9.286e-11,
-5520000,9.3095e-11,
-5580000,9.2521e-11,
-5640000,9.1687e-11,
-5700000,9.0662e-11,
-5760000,8.9546e-11,
-5820000,9.0556e-11,
-5880000,8.9692e-11,
-5940000,8.9067e-11,
-6000000,8.8213e-11,
-5970000,8.9235e-11,
-5910000,8.9238e-11,
-5850000,9.0673e-11,
-5790000,9.0098e-11,
-5730000,9.0064e-11,
-5670000,9.1379e-11,
-5610000,9.1558e-11,
-5550000,9.3298e-11,
-5490000,9.2457e-11,
-5430000,9.5193e-11,
-5370000,9.5929e-11,
-5310000,9.6959e-11,
-5250000,9.7343e-11,
-5190000,9.8041e-11,
-5130000,9.9828e-11,
-5070000,1.0148e-10,
-5010000,1.0326e-10,
-4950000,1.052e-10,
-4890000,1.069e-10,
-4830000,1.0731e-10,
-4770000,1.0937e-10,
-4710000,1.1044e-10,
-4650000,1.1032e-10,
-4590000,1.1155e-10,
-4530000,1.1241e-10,
-4470000,1.1363e-10,
-4410000,1.1423e-10,
-4350000,1.1538e-10,
-4290000,1.1561e-10,
-4230000,1.1696e-10,
-4170000,1.1826e-10,
-4110000,1.1857e-10,
-4050000,1.2064e-10,
-3990000,1.2214e-10,
-3930000,1.2279e-10,
-3870000,1.2561e-10,
-3810000,1.2729e-10,
-3750000,1.293e-10,
-3690000,1.3124e-10,
-3630000,1.3288e-10,
-3570000,1.3485e-10,
-3510000,1.3714e-10,
-3450000,1.3901e-10,
-3390000,1.403e-10,
-3330000,1.4298e-10,
-3270000,1.4375e-10,
-3210000,1.4691e-10,
-3150000,1.4907e-10,
-3090000,1.5061e-10,
-3030000,1.5478e-10,
-2970000,1.5956e-10,
-2910000,1.6618e-10,
-2850000,1.7336e-10,
-2790000,1.8211e-10,
-2730000,1.8881e-10,
-2670000,1.9411e-10,
-2610000,2.0014e-10,
-2550000,1.9988e-10,
-2490000,1.9506e-10,
-2430000,1.8926e-10,
-2370000,1.8125e-10,
-2310000,1.7356e-10,
-2250000,1.7038e-10,
-2190000,1.6762e-10,
-2130000,1.6538e-10,
-2070000,1.6645e-10,
-2010000,1.7272e-10,
-1950000,1.8407e-10,
-1890000,1.992e-10,
-1830000,2.1395e-10,
-1770000,2.2657e-10,
-1710000,2.3513e-10,
-1650000,2.3772e-10,
-1590000,2.3265e-10,
-1530000,2.2225e-10,
-1470000,2.0821e-10,
-1410000,1.9653e-10,
-1350000,1.9083e-10,
-1290000,1.8816e-10,
-1230000,1.9106e-10,
-1170000,2.0249e-10,
-1110000,2.1328e-10,
-1050000,2.3134e-10,
-990000,2.5661e-10,
-930000,2.8839e-10,
-870000,3.0937e-10,
-810000,3.1935e-10,
-750000,3.1256e-10,
-690000,2.9349e-10,
-630000,2.6452e-10,
-570000,2.3265e-10,
-510000,2.095e-10,
-450000,1.9532e-10,
-390000,1.8578e-10,
-330000,1.7864e-10,
-270000,1.7551e-10,
-210000,1.7187e-10,
-150000,1.7085e-10,
-90000,1.7264e-10,
-30000,1.7315e-10,
