General parameters:
Start time: 2023             10             12             13             10      36.423232
Finish time: 2023             10             12             13             35      31.043439
Dwell time (ms): 3750.000000
Source chamber pressure: Error-S
Differential chamber pressure: 7.85e-07
Sample chamber pressure: 2.09e-08
Example position (nm): -4292000.000000,-857000.000000,-1000000.000000
Rotation angle (udeg): 130000060.000000
==========
Instrument status: 
0:Data Directory:/icon/data/2023_09_defect_MoS2_5um_hbn_sub/
1:Sample:MoS2
2:Comments:no
3:PinholePlate:#C13
4:z_Zero:4200
5:Operator:djw77/nav31/kw570
==========
zscan inputs: 
z_sep:50000
z_range:0 -6000000
data_path:/icon/data/2023_09_defect_MoS2_5um_hbn_sub/
example_pos:-4292000  -857000 -1000000
N_dwell:250
sampling_period:15
make_plots:1
m1:0.98976
m2:-0.0074577
example_pos_norm_1:-4282000  -835000 -1000000
example_pos_norm_2:-4330000  -877000 -1000000
==========
Detector params:
Sampling period (ms): 15.000000
N dwell: 250.000000
Filament current (A): 1.540000
Filament emission (mA): 1.896732
Solenoid current (A): NaN
Solenoid shim current (A): NaN
Lens params:
0  685
1  300
2  125
3      -0.002
4       -0.01
5       0.012
6         0.8
7         2.1
8         2.8
9  3000
10  1400
11         0.85
12   0
==========
Data:
z(nm),I(A)
0,4.7614e-11,
-100000,4.8357e-11,
-200000,5.2969e-11,
-300000,5.873e-11,
-400000,7.0544e-11,
-500000,9.2288e-11,
-600000,1.0537e-10,
-700000,9.6456e-11,
-800000,7.7732e-11,
-900000,6.3708e-11,
-1000000,5.7048e-11,
-1100000,5.204e-11,
-1200000,4.7615e-11,
-1300000,4.7583e-11,
-1400000,4.7212e-11,
-1500000,4.627e-11,
-1600000,4.547e-11,
-1700000,4.586e-11,
-1800000,4.8446e-11,
-1900000,5.4176e-11,
-2000000,6.1654e-11,
-2100000,6.7142e-11,
-2200000,6.7297e-11,
-2300000,6.3148e-11,
-2400000,5.3448e-11,
-2500000,4.4678e-11,
-2600000,4.0938e-11,
-2700000,3.8628e-11,
-2800000,3.8773e-11,
-2900000,3.838e-11,
-3000000,3.8931e-11,
-3100000,3.8554e-11,
-3200000,3.7623e-11,
-3300000,3.6862e-11,
-3400000,3.4784e-11,
-3500000,3.262e-11,
-3600000,3.024e-11,
-3700000,3.046e-11,
-3800000,2.9852e-11,
-3900000,2.9134e-11,
-4000000,2.8406e-11,
-4100000,2.7674e-11,
-4200000,2.7734e-11,
-4300000,2.6392e-11,
-4400000,2.56e-11,
-4500000,2.535e-11,
-4600000,2.4274e-11,
-4700000,2.4718e-11,
-4800000,2.3849e-11,
-4900000,2.352e-11,
-5000000,2.2861e-11,
-5100000,2.2571e-11,
-5200000,2.289e-11,
-5300000,2.2599e-11,
-5400000,2.2804e-11,
-5500000,2.5148e-11,
-5600000,2.4156e-11,
-5700000,2.4019e-11,
-5800000,2.2235e-11,
-5900000,2.0746e-11,
-6000000,2.1306e-11,
-5950000,2.119e-11,
-5850000,2.1013e-11,
-5750000,2.2465e-11,
-5650000,2.43e-11,
-5550000,2.5003e-11,
-5450000,2.45e-11,
-5350000,2.1835e-11,
-5250000,2.2132e-11,
-5150000,2.2686e-11,
-5050000,2.2708e-11,
-4950000,2.2925e-11,
-4850000,2.3275e-11,
-4750000,2.3969e-11,
-4650000,2.451e-11,
-4550000,2.4777e-11,
-4450000,2.494e-11,
-4350000,2.5173e-11,
-4250000,2.5372e-11,
-4150000,2.7397e-11,
-4050000,2.7868e-11,
-3950000,2.8159e-11,
-3850000,2.9306e-11,
-3750000,2.9765e-11,
-3650000,3.0525e-11,
-3550000,3.1555e-11,
-3450000,3.3141e-11,
-3350000,3.5025e-11,
-3250000,3.6669e-11,
-3150000,3.7956e-11,
-3050000,3.8346e-11,
-2950000,3.8443e-11,
-2850000,3.814e-11,
-2750000,3.8084e-11,
-2650000,4.0195e-11,
-2550000,4.309e-11,
-2450000,4.8838e-11,
-2350000,5.9403e-11,
-2250000,6.4657e-11,
-2150000,6.7544e-11,
-2050000,6.4486e-11,
-1950000,5.663e-11,
-1850000,5.051e-11,
-1750000,4.6191e-11,
-1650000,4.6006e-11,
-1550000,4.538e-11,
-1450000,4.7281e-11,
-1350000,4.7352e-11,
-1250000,4.9344e-11,
-1150000,4.9032e-11,
-1050000,5.4182e-11,
-950000,6.0349e-11,
-850000,6.8983e-11,
-750000,8.5635e-11,
-650000,1.0172e-10,
-550000,1.0005e-10,
-450000,7.8509e-11,
-350000,6.4292e-11,
-250000,5.425e-11,
-150000,4.8841e-11,
-50000,4.878e-11,
