General parameters:
Start time: 2023             10             24              0             12      52.801418
Finish time: 2023             10             24              0             37      51.283346
Dwell time (ms): 3750.000000
Source chamber pressure: Error-S
Differential chamber pressure: 7.34e-07
Sample chamber pressure: 1.84e-08
Example position (nm): -4091000.000000,-1262000.000000,-1000000.000000
Rotation angle (udeg): 100000000.000000
==========
Instrument status: 
0:Data Directory:/icon/data/2023_09_defect_MoS2_5um_hbn_sub/
1:Sample:MoS2
2:Comments:no
3:PinholePlate:#C13
4:z_Zero:4200
5:Operator:djw77/nav31/kw570
==========
zscan inputs: 
z_sep:50000
z_range:0 -6000000
data_path:/icon/data/2023_09_defect_MoS2_5um_hbn_sub/
example_pos:-4091000 -1262000 -1000000
N_dwell:250
sampling_period:15
make_plots:1
m1:0.9881
m2:-0.0074577
example_pos_norm_1:-4093000 -1239000 -1000000
example_pos_norm_2:-4128000 -1264000 -1000000
==========
Detector params:
Sampling period (ms): 15.000000
N dwell: 250.000000
Filament current (A): 1.540000
Filament emission (mA): 2.224368
Solenoid current (A): NaN
Solenoid shim current (A): NaN
Lens params:
0  685
1  300
2  125
3      -0.002
4       -0.01
5       0.012
6         0.8
7         2.1
8         2.8
9  3000
10  1400
11         0.85
12   0
==========
Data:
z(nm),I(A)
0,2.7913e-11,
-100000,2.749e-11,
-200000,2.8106e-11,
-300000,3.0824e-11,
-400000,3.6226e-11,
-500000,4.9451e-11,
-600000,6.7224e-11,
-700000,7.2933e-11,
-800000,6.3288e-11,
-900000,4.5415e-11,
-1000000,3.7324e-11,
-1100000,3.2644e-11,
-1200000,3.336e-11,
-1300000,3.8754e-11,
-1400000,4.9505e-11,
-1500000,5.9143e-11,
-1600000,6.2177e-11,
-1700000,5.7472e-11,
-1800000,4.6302e-11,
-1900000,3.4544e-11,
-2000000,3.105e-11,
-2100000,3.3374e-11,
-2200000,4.1051e-11,
-2300000,5.5177e-11,
-2400000,6.9145e-11,
-2500000,7.6682e-11,
-2600000,7.2745e-11,
-2700000,6.1465e-11,
-2800000,4.472e-11,
-2900000,3.3386e-11,
-3000000,2.7893e-11,
-3100000,2.588e-11,
-3200000,2.4624e-11,
-3300000,2.629e-11,
-3400000,2.743e-11,
-3500000,2.8448e-11,
-3600000,2.8883e-11,
-3700000,2.7748e-11,
-3800000,2.5364e-11,
-3900000,2.1898e-11,
-4000000,1.9668e-11,
-4100000,1.7887e-11,
-4200000,1.6891e-11,
-4300000,1.5653e-11,
-4400000,1.4927e-11,
-4500000,1.4698e-11,
-4600000,1.4059e-11,
-4700000,1.4337e-11,
-4800000,1.3512e-11,
-4900000,1.3461e-11,
-5000000,1.3142e-11,
-5100000,1.2539e-11,
-5200000,1.2524e-11,
-5300000,1.2594e-11,
-5400000,1.2072e-11,
-5500000,1.2904e-11,
-5600000,1.3082e-11,
-5700000,1.0918e-11,
-5800000,1.1533e-11,
-5900000,1.0767e-11,
-6000000,1.1068e-11,
-5950000,1.1392e-11,
-5850000,1.153e-11,
-5750000,1.122e-11,
-5650000,1.212e-11,
-5550000,1.2996e-11,
-5450000,1.2041e-11,
-5350000,1.1599e-11,
-5250000,1.1884e-11,
-5150000,1.2762e-11,
-5050000,1.2599e-11,
-4950000,1.3518e-11,
-4850000,1.3596e-11,
-4750000,1.3827e-11,
-4650000,1.4174e-11,
-4550000,1.4504e-11,
-4450000,1.5016e-11,
-4350000,1.5707e-11,
-4250000,1.6274e-11,
-4150000,1.7499e-11,
-4050000,1.8771e-11,
-3950000,2.0775e-11,
-3850000,2.3894e-11,
-3750000,2.6074e-11,
-3650000,2.8973e-11,
-3550000,2.9514e-11,
-3450000,2.8835e-11,
-3350000,2.6896e-11,
-3250000,2.6176e-11,
-3150000,2.518e-11,
-3050000,2.6305e-11,
-2950000,3.0048e-11,
-2850000,3.8258e-11,
-2750000,5.4582e-11,
-2650000,6.9588e-11,
-2550000,7.7055e-11,
-2450000,7.5011e-11,
-2350000,6.3614e-11,
-2250000,4.8826e-11,
-2150000,3.6676e-11,
-2050000,3.139e-11,
-1950000,3.2206e-11,
-1850000,3.9552e-11,
-1750000,5.247e-11,
-1650000,6.086e-11,
-1550000,6.2703e-11,
-1450000,5.6531e-11,
-1350000,4.4083e-11,
-1250000,3.566e-11,
-1150000,3.2175e-11,
-1050000,3.508e-11,
-950000,4.0259e-11,
-850000,5.333e-11,
-750000,7.095e-11,
-650000,7.3394e-11,
-550000,6.0746e-11,
-450000,4.2576e-11,
-350000,3.3777e-11,
-250000,2.9496e-11,
-150000,2.7448e-11,
-50000,2.6786e-11,
