General parameters:
Start time: 2023             10             16             13             20      20.122919
Finish time: 2023             10             16             13             45      17.126335
Dwell time (ms): 3750.000000
Source chamber pressure: Error-S
Differential chamber pressure: 7.86e-07
Sample chamber pressure: 1.89e-08
Example position (nm): 4319000.000000,-777000.000000,-1000000.000000
Rotation angle (udeg): 135000065.000000
==========
Instrument status: 
0:Data Directory:/icon/data/2023_09_defect_MoS2_5um_hbn_sub/
1:Sample:MoS2
2:Comments:no
3:PinholePlate:#C13
4:z_Zero:4200
5:Operator:djw77/nav31/kw570
==========
zscan inputs: 
z_sep:50000
z_range:0 -6000000
data_path:/icon/data/2023_09_defect_MoS2_5um_hbn_sub/
example_pos:4319000  -777000 -1000000
N_dwell:250
sampling_period:15
make_plots:1
m1:0.98976
m2:-0.0074577
example_pos_norm_1:-4306000  -757000 -1000000
example_pos_norm_2:-4342000  -747000 -1000000
==========
Detector params:
Sampling period (ms): 15.000000
N dwell: 250.000000
Filament current (A): 1.540000
Filament emission (mA): 2.029428
Solenoid current (A): NaN
Solenoid shim current (A): NaN
Lens params:
0  685
1  300
2  125
3      -0.002
4       -0.01
5       0.012
6         0.8
7         2.1
8         2.8
9  3000
10  1400
11         0.85
12   0
==========
Data:
z(nm),I(A)
0,1.0448e-11,
-100000,2.3526e-11,
-200000,2.4052e-11,
-300000,2.3658e-11,
-400000,2.3418e-11,
-500000,2.3422e-11,
-600000,2.3852e-11,
-700000,2.3678e-11,
-800000,2.3396e-11,
-900000,2.3197e-11,
-1000000,2.3301e-11,
-1100000,2.2772e-11,
-1200000,2.2886e-11,
-1300000,2.2611e-11,
-1400000,2.1984e-11,
-1500000,2.2218e-11,
-1600000,2.1748e-11,
-1700000,2.1804e-11,
-1800000,2.1472e-11,
-1900000,2.1216e-11,
-2000000,2.0419e-11,
-2100000,2.0127e-11,
-2200000,2.0503e-11,
-2300000,1.9451e-11,
-2400000,1.9454e-11,
-2500000,1.8965e-11,
-2600000,1.8508e-11,
-2700000,1.8655e-11,
-2800000,1.839e-11,
-2900000,1.785e-11,
-3000000,1.7607e-11,
-3100000,1.7111e-11,
-3200000,1.6867e-11,
-3300000,1.6704e-11,
-3400000,1.6325e-11,
-3500000,1.6572e-11,
-3600000,1.5519e-11,
-3700000,1.5232e-11,
-3800000,1.488e-11,
-3900000,1.4672e-11,
-4000000,1.4608e-11,
-4100000,1.4637e-11,
-4200000,1.4093e-11,
-4300000,1.341e-11,
-4400000,1.348e-11,
-4500000,1.3475e-11,
-4600000,1.2946e-11,
-4700000,1.274e-11,
-4800000,1.2969e-11,
-4900000,1.2323e-11,
-5000000,1.214e-11,
-5100000,1.2098e-11,
-5200000,1.1947e-11,
-5300000,1.1868e-11,
-5400000,1.1611e-11,
-5500000,1.1289e-11,
-5600000,1.1266e-11,
-5700000,1.0944e-11,
-5800000,1.1072e-11,
-5900000,1.1048e-11,
-6000000,1.1104e-11,
-5950000,1.0842e-11,
-5850000,1.1016e-11,
-5750000,1.1148e-11,
-5650000,1.1449e-11,
-5550000,1.1839e-11,
-5450000,1.1634e-11,
-5350000,1.1962e-11,
-5250000,1.227e-11,
-5150000,1.2469e-11,
-5050000,1.2848e-11,
-4950000,1.31e-11,
-4850000,1.2561e-11,
-4750000,1.2954e-11,
-4650000,1.309e-11,
-4550000,1.3364e-11,
-4450000,1.3799e-11,
-4350000,1.3534e-11,
-4250000,1.4424e-11,
-4150000,1.4138e-11,
-4050000,1.4303e-11,
-3950000,1.4909e-11,
-3850000,1.5531e-11,
-3750000,1.5804e-11,
-3650000,1.568e-11,
-3550000,1.6e-11,
-3450000,1.5873e-11,
-3350000,1.679e-11,
-3250000,1.7336e-11,
-3150000,1.7198e-11,
-3050000,1.7664e-11,
-2950000,1.8354e-11,
-2850000,1.8295e-11,
-2750000,1.8672e-11,
-2650000,1.9352e-11,
-2550000,1.933e-11,
-2450000,1.9162e-11,
-2350000,2.0266e-11,
-2250000,2.0056e-11,
-2150000,2.0388e-11,
-2050000,2.1002e-11,
-1950000,2.1356e-11,
-1850000,2.1012e-11,
-1750000,2.2072e-11,
-1650000,2.1385e-11,
-1550000,2.206e-11,
-1450000,2.1996e-11,
-1350000,2.2864e-11,
-1250000,2.2881e-11,
-1150000,2.3028e-11,
-1050000,2.3448e-11,
-950000,2.3488e-11,
-850000,2.442e-11,
-750000,2.4318e-11,
-650000,2.4667e-11,
-550000,2.4795e-11,
-450000,2.4014e-11,
-350000,2.4304e-11,
-250000,2.3804e-11,
-150000,2.4149e-11,
-50000,2.4109e-11,
