General parameters:
Start time: 2023             10              9             23             23      11.499167
Finish time: 2023             10              9             23             48       6.026086
Dwell time (ms): 3750.000000
Source chamber pressure: Error-S
Differential chamber pressure: 7.82e-07
Sample chamber pressure: 2.04e-08
Example position (nm): -3672000.000000,-1493000.000000,-1000000.000000
Rotation angle (udeg): 69999935.000000
==========
Instrument status: 
0:Data Directory:/icon/data/2023_09_defect_MoS2_5um_hbn_sub/
1:Sample:MoS2
2:Comments:no
3:PinholePlate:#C13
4:z_Zero:4200
5:Operator:djw77/nav31/kw570
==========
zscan inputs: 
z_sep:50000
z_range:0 -6000000
data_path:/icon/data/2023_09_defect_MoS2_5um_hbn_sub/
example_pos:-3672000 -1493000 -1000000
N_dwell:250
sampling_period:15
make_plots:1
m1:0.98976
m2:-0.0074577
example_pos_norm_1:-3687000 -1473000 -1000000
example_pos_norm_2:-3719000 -1503000 -1000000
==========
Detector params:
Sampling period (ms): 15.000000
N dwell: 250.000000
Filament current (A): 1.540000
Filament emission (mA): 1.802682
Solenoid current (A): NaN
Solenoid shim current (A): NaN
Lens params:
0  685
1  300
2  125
3      -0.002
4       -0.01
5       0.012
6         0.8
7         2.1
8         2.8
9  3000
10  1400
11         0.85
12   0
==========
Data:
z(nm),I(A)
0,2.9017e-11,
-100000,2.6782e-11,
-200000,2.6219e-11,
-300000,2.6351e-11,
-400000,2.8356e-11,
-500000,3.3638e-11,
-600000,4.4936e-11,
-700000,5.9024e-11,
-800000,6.4574e-11,
-900000,6.0147e-11,
-1000000,4.5972e-11,
-1100000,3.5846e-11,
-1200000,2.9843e-11,
-1300000,2.7344e-11,
-1400000,2.5591e-11,
-1500000,2.5139e-11,
-1600000,2.527e-11,
-1700000,2.4134e-11,
-1800000,2.4094e-11,
-1900000,2.4108e-11,
-2000000,2.4862e-11,
-2100000,2.7132e-11,
-2200000,3.0812e-11,
-2300000,3.1889e-11,
-2400000,3.2183e-11,
-2500000,2.9239e-11,
-2600000,2.516e-11,
-2700000,2.1695e-11,
-2800000,1.9532e-11,
-2900000,1.8479e-11,
-3000000,1.7546e-11,
-3100000,1.7913e-11,
-3200000,1.7756e-11,
-3300000,1.7482e-11,
-3400000,1.7439e-11,
-3500000,1.7256e-11,
-3600000,1.6306e-11,
-3700000,1.5698e-11,
-3800000,1.4833e-11,
-3900000,1.4689e-11,
-4000000,1.4332e-11,
-4100000,1.3791e-11,
-4200000,1.3355e-11,
-4300000,1.3584e-11,
-4400000,1.2884e-11,
-4500000,1.259e-11,
-4600000,1.257e-11,
-4700000,1.2556e-11,
-4800000,1.1803e-11,
-4900000,1.2197e-11,
-5000000,1.1628e-11,
-5100000,1.1684e-11,
-5200000,1.1331e-11,
-5300000,1.057e-11,
-5400000,1.1153e-11,
-5500000,1.2327e-11,
-5600000,1.1969e-11,
-5700000,1.1866e-11,
-5800000,1.1266e-11,
-5900000,1.0592e-11,
-6000000,1.0216e-11,
-5950000,9.94e-12,
-5850000,1.0549e-11,
-5750000,1.1158e-11,
-5650000,1.1497e-11,
-5550000,1.1941e-11,
-5450000,1.2306e-11,
-5350000,1.0968e-11,
-5250000,1.1318e-11,
-5150000,1.1801e-11,
-5050000,1.1536e-11,
-4950000,1.2225e-11,
-4850000,1.221e-11,
-4750000,1.218e-11,
-4650000,1.2384e-11,
-4550000,1.2646e-11,
-4450000,1.2949e-11,
-4350000,1.3344e-11,
-4250000,1.342e-11,
-4150000,1.3617e-11,
-4050000,1.4357e-11,
-3950000,1.4006e-11,
-3850000,1.453e-11,
-3750000,1.5545e-11,
-3650000,1.6614e-11,
-3550000,1.7048e-11,
-3450000,1.7178e-11,
-3350000,1.7906e-11,
-3250000,1.8102e-11,
-3150000,1.7941e-11,
-3050000,1.8134e-11,
-2950000,1.8358e-11,
-2850000,1.8673e-11,
-2750000,2.0937e-11,
-2650000,2.3712e-11,
-2550000,2.8142e-11,
-2450000,3.2027e-11,
-2350000,3.3064e-11,
-2250000,3.1624e-11,
-2150000,2.8389e-11,
-2050000,2.5901e-11,
-1950000,2.4577e-11,
-1850000,2.3819e-11,
-1750000,2.4362e-11,
-1650000,2.5398e-11,
-1550000,2.4525e-11,
-1450000,2.586e-11,
-1350000,2.6737e-11,
-1250000,2.8698e-11,
-1150000,3.261e-11,
-1050000,4.1375e-11,
-950000,5.5e-11,
-850000,6.5153e-11,
-750000,6.3965e-11,
-650000,5.3013e-11,
-550000,3.8601e-11,
-450000,3.0991e-11,
-350000,2.7029e-11,
-250000,2.6248e-11,
-150000,2.6356e-11,
-50000,2.766e-11,
