General parameters:
Start time: 2023             10             16             14             37      18.199704
Finish time: 2023             10             16             15              2      14.978109
Dwell time (ms): 3750.000000
Source chamber pressure: Error-S
Differential chamber pressure: 7.93e-07
Sample chamber pressure: 1.91e-08
Example position (nm): 4319000.000000,-777000.000000,-1000000.000000
Rotation angle (udeg): 135000105.000000
==========
Instrument status: 
0:Data Directory:/icon/data/2023_09_defect_MoS2_5um_hbn_sub/
1:Sample:MoS2
2:Comments:no
3:PinholePlate:#C13
4:z_Zero:4200
5:Operator:djw77/nav31/kw570
==========
zscan inputs: 
z_sep:50000
z_range:0 -6000000
data_path:/icon/data/2023_09_defect_MoS2_5um_hbn_sub/
example_pos:4319000  -777000 -1000000
N_dwell:250
sampling_period:15
make_plots:1
m1:0.98976
m2:-0.0074577
example_pos_norm_1:-4306000  -757000 -1000000
example_pos_norm_2:-4342000  -747000 -1000000
==========
Detector params:
Sampling period (ms): 15.000000
N dwell: 250.000000
Filament current (A): 1.540000
Filament emission (mA): 2.037978
Solenoid current (A): NaN
Solenoid shim current (A): NaN
Lens params:
0  685
1  300
2  125
3      -0.002
4       -0.01
5       0.012
6         0.8
7         2.1
8         2.8
9  3000
10  1400
11         0.85
12   0
==========
Data:
z(nm),I(A)
0,1.0071e-11,
-100000,2.3553e-11,
-200000,2.3189e-11,
-300000,2.3462e-11,
-400000,2.3427e-11,
-500000,2.3663e-11,
-600000,2.322e-11,
-700000,2.2692e-11,
-800000,2.2915e-11,
-900000,2.2751e-11,
-1000000,2.2619e-11,
-1100000,2.2485e-11,
-1200000,2.2228e-11,
-1300000,2.203e-11,
-1400000,2.1704e-11,
-1500000,2.2144e-11,
-1600000,2.141e-11,
-1700000,2.0667e-11,
-1800000,2.0404e-11,
-1900000,1.9806e-11,
-2000000,2.0105e-11,
-2100000,2.047e-11,
-2200000,1.9538e-11,
-2300000,1.9294e-11,
-2400000,1.8764e-11,
-2500000,1.8472e-11,
-2600000,1.8453e-11,
-2700000,1.8016e-11,
-2800000,1.7292e-11,
-2900000,1.6828e-11,
-3000000,1.6982e-11,
-3100000,1.6854e-11,
-3200000,1.608e-11,
-3300000,1.5908e-11,
-3400000,1.63e-11,
-3500000,1.5696e-11,
-3600000,1.5235e-11,
-3700000,1.4973e-11,
-3800000,1.4648e-11,
-3900000,1.4471e-11,
-4000000,1.4549e-11,
-4100000,1.3948e-11,
-4200000,1.4099e-11,
-4300000,1.3627e-11,
-4400000,1.2897e-11,
-4500000,1.3187e-11,
-4600000,1.2685e-11,
-4700000,1.2682e-11,
-4800000,1.2516e-11,
-4900000,1.2241e-11,
-5000000,1.2072e-11,
-5100000,1.2114e-11,
-5200000,1.1734e-11,
-5300000,1.189e-11,
-5400000,1.1494e-11,
-5500000,1.1716e-11,
-5600000,1.1189e-11,
-5700000,1.1057e-11,
-5800000,1.0948e-11,
-5900000,1.0681e-11,
-6000000,1.0348e-11,
-5950000,1.0733e-11,
-5850000,1.0991e-11,
-5750000,1.1119e-11,
-5650000,1.1563e-11,
-5550000,1.1198e-11,
-5450000,1.1698e-11,
-5350000,1.1857e-11,
-5250000,1.169e-11,
-5150000,1.2164e-11,
-5050000,1.2517e-11,
-4950000,1.2824e-11,
-4850000,1.2725e-11,
-4750000,1.2666e-11,
-4650000,1.2943e-11,
-4550000,1.3852e-11,
-4450000,1.3312e-11,
-4350000,1.3566e-11,
-4250000,1.4168e-11,
-4150000,1.4028e-11,
-4050000,1.4758e-11,
-3950000,1.4501e-11,
-3850000,1.5198e-11,
-3750000,1.5192e-11,
-3650000,1.6064e-11,
-3550000,1.5784e-11,
-3450000,1.6062e-11,
-3350000,1.606e-11,
-3250000,1.6638e-11,
-3150000,1.6975e-11,
-3050000,1.7991e-11,
-2950000,1.7675e-11,
-2850000,1.7945e-11,
-2750000,1.8261e-11,
-2650000,1.8474e-11,
-2550000,1.8942e-11,
-2450000,1.9242e-11,
-2350000,1.9871e-11,
-2250000,1.9226e-11,
-2150000,2.0441e-11,
-2050000,2.0396e-11,
-1950000,2.0745e-11,
-1850000,2.1094e-11,
-1750000,2.1118e-11,
-1650000,2.1568e-11,
-1550000,2.161e-11,
-1450000,2.2553e-11,
-1350000,2.2616e-11,
-1250000,2.2667e-11,
-1150000,2.2777e-11,
-1050000,2.3163e-11,
-950000,2.3612e-11,
-850000,2.3745e-11,
-750000,2.3614e-11,
-650000,2.4082e-11,
-550000,2.4011e-11,
-450000,2.435e-11,
-350000,2.3755e-11,
-250000,2.3629e-11,
-150000,2.3691e-11,
-50000,2.3445e-11,
