General parameters:
Start time: 2023             10             18             15              7      29.971346
Finish time: 2023             10             18             15             32      29.281292
Dwell time (ms): 3750.000000
Source chamber pressure: Error-S
Differential chamber pressure: 7.99e-07
Sample chamber pressure: 1.92e-08
Example position (nm): -4278000.000000,-928000.000000,-1000000.000000
Rotation angle (udeg): 124999950.000000
==========
Instrument status: 
0:Data Directory:/icon/data/2023_09_defect_MoS2_5um_hbn_sub/
1:Sample:MoS2
2:Comments:no
3:PinholePlate:#C13
4:z_Zero:4200
5:Operator:djw77/nav31/kw570
==========
zscan inputs: 
z_sep:50000
z_range:0 -6000000
data_path:/icon/data/2023_09_defect_MoS2_5um_hbn_sub/
example_pos:-4278000  -928000 -1000000
N_dwell:250
sampling_period:15
make_plots:1
m1:0.98976
m2:-0.0074577
example_pos_norm_1:-4274000  -906000 -1000000
example_pos_norm_2:-4308000  -916000 -1000000
==========
Detector params:
Sampling period (ms): 15.000000
N dwell: 250.000000
Filament current (A): 1.540000
Filament emission (mA): 2.066364
Solenoid current (A): NaN
Solenoid shim current (A): NaN
Lens params:
0  685
1  300
2  125
3      -0.002
4       -0.01
5       0.012
6         0.8
7         2.1
8         2.8
9  3000
10  1400
11         0.85
12   0
==========
Data:
z(nm),I(A)
0,2.3136e-11,
-100000,2.3989e-11,
-200000,2.5171e-11,
-300000,2.8172e-11,
-400000,3.0348e-11,
-500000,4.1361e-11,
-600000,4.9821e-11,
-700000,4.6269e-11,
-800000,3.7589e-11,
-900000,3.0477e-11,
-1000000,2.5569e-11,
-1100000,2.2002e-11,
-1200000,2.041e-11,
-1300000,1.9877e-11,
-1400000,1.9373e-11,
-1500000,1.9541e-11,
-1600000,1.9202e-11,
-1700000,1.9316e-11,
-1800000,2.0567e-11,
-1900000,2.2826e-11,
-2000000,2.5865e-11,
-2100000,2.8571e-11,
-2200000,2.9079e-11,
-2300000,2.5617e-11,
-2400000,2.3484e-11,
-2500000,2.0559e-11,
-2600000,1.8692e-11,
-2700000,1.8534e-11,
-2800000,1.9611e-11,
-2900000,2.0938e-11,
-3000000,2.3304e-11,
-3100000,2.4065e-11,
-3200000,2.4231e-11,
-3300000,2.204e-11,
-3400000,1.8992e-11,
-3500000,1.6168e-11,
-3600000,1.3852e-11,
-3700000,1.3124e-11,
-3800000,1.1971e-11,
-3900000,1.1475e-11,
-4000000,1.1451e-11,
-4100000,1.1022e-11,
-4200000,1.0934e-11,
-4300000,1.0699e-11,
-4400000,1.0395e-11,
-4500000,1.0279e-11,
-4600000,9.5996e-12,
-4700000,9.2924e-12,
-4800000,9.034e-12,
-4900000,9.0472e-12,
-5000000,8.3116e-12,
-5100000,8.79e-12,
-5200000,8.458e-12,
-5300000,8.194e-12,
-5400000,7.6712e-12,
-5500000,8.8352e-12,
-5600000,9.018e-12,
-5700000,8.6644e-12,
-5800000,7.7328e-12,
-5900000,7.4044e-12,
-6000000,7.1096e-12,
-5950000,6.8308e-12,
-5850000,7.3572e-12,
-5750000,8.15e-12,
-5650000,8.8508e-12,
-5550000,9.2104e-12,
-5450000,9.0576e-12,
-5350000,8.3872e-12,
-5250000,7.76e-12,
-5150000,8.194e-12,
-5050000,8.616e-12,
-4950000,8.5836e-12,
-4850000,9.0776e-12,
-4750000,9.5328e-12,
-4650000,9.5596e-12,
-4550000,9.5276e-12,
-4450000,9.9112e-12,
-4350000,1.0513e-11,
-4250000,1.0534e-11,
-4150000,1.0618e-11,
-4050000,1.1046e-11,
-3950000,1.1475e-11,
-3850000,1.1754e-11,
-3750000,1.1946e-11,
-3650000,1.2963e-11,
-3550000,1.4054e-11,
-3450000,1.6599e-11,
-3350000,1.9385e-11,
-3250000,2.2228e-11,
-3150000,2.3822e-11,
-3050000,2.3257e-11,
-2950000,2.2015e-11,
-2850000,1.9758e-11,
-2750000,1.8677e-11,
-2650000,1.7429e-11,
-2550000,1.8318e-11,
-2450000,2.0194e-11,
-2350000,2.3421e-11,
-2250000,2.7041e-11,
-2150000,2.8163e-11,
-2050000,2.7e-11,
-1950000,2.3659e-11,
-1850000,2.0672e-11,
-1750000,1.8892e-11,
-1650000,1.8422e-11,
-1550000,1.8552e-11,
-1450000,1.9415e-11,
-1350000,1.896e-11,
-1250000,1.9585e-11,
-1150000,2.0777e-11,
-1050000,2.2303e-11,
-950000,2.5726e-11,
-850000,3.1867e-11,
-750000,4.0079e-11,
-650000,4.8627e-11,
-550000,4.5665e-11,
-450000,3.3711e-11,
-350000,2.618e-11,
-250000,2.3125e-11,
-150000,2.1066e-11,
-50000,2.1318e-11,
