General parameters:
Start time: 2023             10             11             16             39       4.103593
Finish time: 2023             10             11             17              3      59.318728
Dwell time (ms): 3750.000000
Source chamber pressure: Error-S
Differential chamber pressure: 7.92e-07
Sample chamber pressure: 2.23e-08
Example position (nm): -4253000.000000,-999000.000000,-1000000.000000
Rotation angle (udeg): 120000015.000000
==========
Instrument status: 
0:Data Directory:/icon/data/2023_09_defect_MoS2_5um_hbn_sub/
1:Sample:MoS2
2:Comments:no
3:PinholePlate:#C13
4:z_Zero:4200
5:Operator:djw77/nav31/kw570
==========
zscan inputs: 
z_sep:50000
z_range:0 -6000000
data_path:/icon/data/2023_09_defect_MoS2_5um_hbn_sub/
example_pos:-4253000  -999000 -1000000
N_dwell:250
sampling_period:15
make_plots:1
m1:0.98976
m2:-0.0074577
example_pos_norm_1:-4246000  -976000 -1000000
example_pos_norm_2:-4306000 -1021000 -1000000
==========
Detector params:
Sampling period (ms): 15.000000
N dwell: 250.000000
Filament current (A): 1.540000
Filament emission (mA): 1.783188
Solenoid current (A): NaN
Solenoid shim current (A): NaN
Lens params:
0  685
1  300
2  125
3      -0.002
4       -0.01
5       0.012
6         0.8
7         2.1
8         2.8
9  3000
10  1400
11         0.85
12   0
==========
Data:
z(nm),I(A)
0,2.3851e-11,
-100000,2.286e-11,
-200000,2.3263e-11,
-300000,2.554e-11,
-400000,3.0932e-11,
-500000,3.974e-11,
-600000,4.7246e-11,
-700000,4.7281e-11,
-800000,3.9714e-11,
-900000,3.151e-11,
-1000000,2.8071e-11,
-1100000,2.6368e-11,
-1200000,2.3395e-11,
-1300000,2.3295e-11,
-1400000,2.3032e-11,
-1500000,2.3052e-11,
-1600000,2.3405e-11,
-1700000,2.1675e-11,
-1800000,2.2062e-11,
-1900000,2.2845e-11,
-2000000,2.3591e-11,
-2100000,2.438e-11,
-2200000,2.4524e-11,
-2300000,2.2353e-11,
-2400000,2.1154e-11,
-2500000,2.0645e-11,
-2600000,1.9851e-11,
-2700000,2.0296e-11,
-2800000,2.1872e-11,
-2900000,2.3914e-11,
-3000000,2.4817e-11,
-3100000,2.5636e-11,
-3200000,2.4108e-11,
-3300000,2.1144e-11,
-3400000,1.9138e-11,
-3500000,1.6742e-11,
-3600000,1.5023e-11,
-3700000,1.4192e-11,
-3800000,1.3542e-11,
-3900000,1.341e-11,
-4000000,1.3284e-11,
-4100000,1.3106e-11,
-4200000,1.3923e-11,
-4300000,1.2942e-11,
-4400000,1.2356e-11,
-4500000,1.1823e-11,
-4600000,1.1364e-11,
-4700000,1.0755e-11,
-4800000,1.0519e-11,
-4900000,1.003e-11,
-5000000,9.484e-12,
-5100000,9.442e-12,
-5200000,8.764e-12,
-5300000,9.1772e-12,
-5400000,8.8516e-12,
-5500000,9.8444e-12,
-5600000,9.7324e-12,
-5700000,9.3628e-12,
-5800000,8.4196e-12,
-5900000,8.1748e-12,
-6000000,7.8592e-12,
-5950000,8.1016e-12,
-5850000,8.5756e-12,
-5750000,8.5084e-12,
-5650000,9.9724e-12,
-5550000,9.8456e-12,
-5450000,9.3828e-12,
-5350000,8.4148e-12,
-5250000,8.7452e-12,
-5150000,9.0232e-12,
-5050000,9.0156e-12,
-4950000,9.6208e-12,
-4850000,1.0199e-11,
-4750000,1.0708e-11,
-4650000,1.104e-11,
-4550000,1.1709e-11,
-4450000,1.1756e-11,
-4350000,1.2402e-11,
-4250000,1.2889e-11,
-4150000,1.3486e-11,
-4050000,1.3772e-11,
-3950000,1.3616e-11,
-3850000,1.3683e-11,
-3750000,1.4327e-11,
-3650000,1.4588e-11,
-3550000,1.6232e-11,
-3450000,1.7989e-11,
-3350000,2.0131e-11,
-3250000,2.407e-11,
-3150000,2.575e-11,
-3050000,2.6073e-11,
-2950000,2.5123e-11,
-2850000,2.2723e-11,
-2750000,2.0769e-11,
-2650000,2.0267e-11,
-2550000,2.0308e-11,
-2450000,2.0858e-11,
-2350000,2.2115e-11,
-2250000,2.3654e-11,
-2150000,2.4365e-11,
-2050000,2.4152e-11,
-1950000,2.3188e-11,
-1850000,2.2543e-11,
-1750000,2.1878e-11,
-1650000,2.2608e-11,
-1550000,2.3896e-11,
-1450000,2.4082e-11,
-1350000,2.3366e-11,
-1250000,2.3121e-11,
-1150000,2.3987e-11,
-1050000,2.7743e-11,
-950000,2.9896e-11,
-850000,3.5558e-11,
-750000,4.4324e-11,
-650000,5.0334e-11,
-550000,4.5681e-11,
-450000,3.4385e-11,
-350000,2.7874e-11,
-250000,2.475e-11,
-150000,2.29e-11,
-50000,2.3259e-11,
