General parameters:
Start time: 2023             10             15             20             59      26.019768
Finish time: 2023             10             15             21             24      22.919342
Dwell time (ms): 3750.000000
Source chamber pressure: Error-S
Differential chamber pressure: 7.95e-07
Sample chamber pressure: 2.04e-08
Example position (nm): -4316000.000000,-777000.000000,-1000000.000000
Rotation angle (udeg): 134999920.000000
==========
Instrument status: 
0:Data Directory:/icon/data/2023_09_defect_MoS2_5um_hbn_sub/
1:Sample:MoS2
2:Comments:no
3:PinholePlate:#C13
4:z_Zero:4200
5:Operator:djw77/nav31/kw570
==========
zscan inputs: 
z_sep:50000
z_range:0 -6000000
data_path:/icon/data/2023_09_defect_MoS2_5um_hbn_sub/
example_pos:-4316000  -777000 -1000000
N_dwell:250
sampling_period:15
make_plots:1
m1:0.98976
m2:-0.0074577
example_pos_norm_1:-4306000  -757000 -1000000
example_pos_norm_2:-4342000  -747000 -1000000
==========
Detector params:
Sampling period (ms): 15.000000
N dwell: 250.000000
Filament current (A): 1.540000
Filament emission (mA): 1.963764
Solenoid current (A): NaN
Solenoid shim current (A): NaN
Lens params:
0  685
1  300
2  125
3      -0.002
4       -0.01
5       0.012
6         0.8
7         2.1
8         2.8
9  3000
10  1400
11         0.85
12   0
==========
Data:
z(nm),I(A)
0,4.6614e-11,
-100000,5.2344e-11,
-200000,5.6682e-11,
-300000,5.7331e-11,
-400000,5.748e-11,
-500000,7.719e-11,
-600000,8.9737e-11,
-700000,7.508e-11,
-800000,5.5302e-11,
-900000,4.4638e-11,
-1000000,3.9212e-11,
-1100000,3.5406e-11,
-1200000,3.4179e-11,
-1300000,3.3652e-11,
-1400000,3.2596e-11,
-1500000,3.2003e-11,
-1600000,3.1319e-11,
-1700000,3.076e-11,
-1800000,3.2043e-11,
-1900000,3.4981e-11,
-2000000,3.9637e-11,
-2100000,4.355e-11,
-2200000,4.3651e-11,
-2300000,4.0282e-11,
-2400000,3.4255e-11,
-2500000,2.8301e-11,
-2600000,2.5477e-11,
-2700000,2.4064e-11,
-2800000,2.3992e-11,
-2900000,2.2812e-11,
-3000000,2.2922e-11,
-3100000,2.2341e-11,
-3200000,2.139e-11,
-3300000,2.0764e-11,
-3400000,2.0845e-11,
-3500000,2.0011e-11,
-3600000,1.9815e-11,
-3700000,2e-11,
-3800000,2.0177e-11,
-3900000,2.0286e-11,
-4000000,1.9908e-11,
-4100000,1.9956e-11,
-4200000,1.9067e-11,
-4300000,1.8143e-11,
-4400000,1.6776e-11,
-4500000,1.6112e-11,
-4600000,1.5304e-11,
-4700000,1.5332e-11,
-4800000,1.4974e-11,
-4900000,1.4397e-11,
-5000000,1.3837e-11,
-5100000,1.3449e-11,
-5200000,1.3303e-11,
-5300000,1.3068e-11,
-5400000,1.3412e-11,
-5500000,1.5412e-11,
-5600000,1.4866e-11,
-5700000,1.438e-11,
-5800000,1.283e-11,
-5900000,1.2341e-11,
-6000000,1.1845e-11,
-5950000,1.23e-11,
-5850000,1.2526e-11,
-5750000,1.3682e-11,
-5650000,1.4676e-11,
-5550000,1.4779e-11,
-5450000,1.4954e-11,
-5350000,1.3049e-11,
-5250000,1.334e-11,
-5150000,1.3467e-11,
-5050000,1.3736e-11,
-4950000,1.3972e-11,
-4850000,1.4492e-11,
-4750000,1.4754e-11,
-4650000,1.5493e-11,
-4550000,1.5655e-11,
-4450000,1.6453e-11,
-4350000,1.7229e-11,
-4250000,1.9058e-11,
-4150000,1.9693e-11,
-4050000,1.9725e-11,
-3950000,2.029e-11,
-3850000,1.9861e-11,
-3750000,1.9619e-11,
-3650000,1.994e-11,
-3550000,1.9736e-11,
-3450000,2.0076e-11,
-3350000,2.0976e-11,
-3250000,2.126e-11,
-3150000,2.2065e-11,
-3050000,2.2552e-11,
-2950000,2.2724e-11,
-2850000,2.2749e-11,
-2750000,2.3355e-11,
-2650000,2.4288e-11,
-2550000,2.6775e-11,
-2450000,3.1608e-11,
-2350000,3.7098e-11,
-2250000,4.2758e-11,
-2150000,4.4153e-11,
-2050000,4.2232e-11,
-1950000,3.781e-11,
-1850000,3.3488e-11,
-1750000,3.1531e-11,
-1650000,3.0814e-11,
-1550000,3.1931e-11,
-1450000,3.3196e-11,
-1350000,3.3506e-11,
-1250000,3.4838e-11,
-1150000,3.478e-11,
-1050000,3.6728e-11,
-950000,4.1218e-11,
-850000,4.9133e-11,
-750000,6.255e-11,
-650000,9.213e-11,
-550000,9.735e-11,
-450000,7.8567e-11,
-350000,6.1933e-11,
-250000,5.0725e-11,
-150000,3.8367e-11,
-50000,4.6127e-11,
