General parameters:
Start time: 2023             10             20             17             23       0.610864
Finish time: 2023             10             20             17             47      55.131558
Dwell time (ms): 3750.000000
Source chamber pressure: Error-S
Differential chamber pressure: 7.94e-07
Sample chamber pressure: 2.00e-08
Example position (nm): -3749000.000000,-1468000.000000,-1000000.000000
Rotation angle (udeg): 74999935.000000
==========
Instrument status: 
0:Data Directory:/icon/data/2023_09_defect_MoS2_5um_hbn_sub/
1:Sample:MoS2
2:Comments:no
3:PinholePlate:#C13
4:z_Zero:4200
5:Operator:djw77/nav31/kw570
==========
zscan inputs: 
z_sep:50000
z_range:0 -6000000
data_path:/icon/data/2023_09_defect_MoS2_5um_hbn_sub/
example_pos:-3749000 -1468000 -1000000
N_dwell:250
sampling_period:15
make_plots:1
m1:0.98976
m2:-0.0074577
example_pos_norm_1:-3762000 -1448000 -1000000
example_pos_norm_2:-3784000 -1472000 -1000000
==========
Detector params:
Sampling period (ms): 15.000000
N dwell: 250.000000
Filament current (A): 1.540000
Filament emission (mA): 2.089962
Solenoid current (A): NaN
Solenoid shim current (A): NaN
Lens params:
0  685
1  300
2  125
3      -0.002
4       -0.01
5       0.012
6         0.8
7         2.1
8         2.8
9  3000
10  1400
11         0.85
12   0
==========
Data:
z(nm),I(A)
0,1.8679e-11,
-100000,1.7421e-11,
-200000,1.7021e-11,
-300000,1.7354e-11,
-400000,1.9355e-11,
-500000,2.3348e-11,
-600000,3.2009e-11,
-700000,4.2056e-11,
-800000,4.5392e-11,
-900000,4.1367e-11,
-1000000,3.1046e-11,
-1100000,2.4162e-11,
-1200000,2.089e-11,
-1300000,1.8305e-11,
-1400000,1.8133e-11,
-1500000,1.7822e-11,
-1600000,1.7802e-11,
-1700000,1.7148e-11,
-1800000,1.6454e-11,
-1900000,1.6172e-11,
-2000000,1.6813e-11,
-2100000,1.7871e-11,
-2200000,2.0667e-11,
-2300000,2.1757e-11,
-2400000,2.1854e-11,
-2500000,2.0537e-11,
-2600000,1.8201e-11,
-2700000,1.5507e-11,
-2800000,1.3443e-11,
-2900000,1.2552e-11,
-3000000,1.2107e-11,
-3100000,1.1768e-11,
-3200000,1.1805e-11,
-3300000,1.1218e-11,
-3400000,1.112e-11,
-3500000,1.0664e-11,
-3600000,1.0137e-11,
-3700000,9.9204e-12,
-3800000,9.8796e-12,
-3900000,9.2456e-12,
-4000000,9.6148e-12,
-4100000,9.5644e-12,
-4200000,9.7316e-12,
-4300000,9.648e-12,
-4400000,9.8524e-12,
-4500000,9.3924e-12,
-4600000,8.4624e-12,
-4700000,8.3476e-12,
-4800000,8.0004e-12,
-4900000,7.934e-12,
-5000000,7.9132e-12,
-5100000,7.24e-12,
-5200000,7.0872e-12,
-5300000,6.6896e-12,
-5400000,7.3848e-12,
-5500000,7.6016e-12,
-5600000,7.5368e-12,
-5700000,7.4524e-12,
-5800000,6.8648e-12,
-5900000,6.5568e-12,
-6000000,6.3216e-12,
-5950000,6.1516e-12,
-5850000,6.3828e-12,
-5750000,6.9452e-12,
-5650000,7.264e-12,
-5550000,7.7408e-12,
-5450000,7.8692e-12,
-5350000,7.1136e-12,
-5250000,7.0296e-12,
-5150000,7.1636e-12,
-5050000,7.2868e-12,
-4950000,7.504e-12,
-4850000,7.7568e-12,
-4750000,8.0008e-12,
-4650000,8.558e-12,
-4550000,9.1396e-12,
-4450000,8.8552e-12,
-4350000,9.0292e-12,
-4250000,9.2288e-12,
-4150000,9.536e-12,
-4050000,9.3804e-12,
-3950000,9.4464e-12,
-3850000,9.6276e-12,
-3750000,9.578e-12,
-3650000,1.0152e-11,
-3550000,1.0503e-11,
-3450000,1.065e-11,
-3350000,1.1156e-11,
-3250000,1.1488e-11,
-3150000,1.1622e-11,
-3050000,1.1628e-11,
-2950000,1.199e-11,
-2850000,1.247e-11,
-2750000,1.4005e-11,
-2650000,1.6327e-11,
-2550000,1.9086e-11,
-2450000,2.1541e-11,
-2350000,2.2185e-11,
-2250000,2.1666e-11,
-2150000,1.8941e-11,
-2050000,1.7134e-11,
-1950000,1.5702e-11,
-1850000,1.6147e-11,
-1750000,1.6451e-11,
-1650000,1.7325e-11,
-1550000,1.7548e-11,
-1450000,1.7664e-11,
-1350000,1.7712e-11,
-1250000,1.8802e-11,
-1150000,2.1471e-11,
-1050000,2.7022e-11,
-950000,3.6351e-11,
-850000,4.4666e-11,
-750000,4.4814e-11,
-650000,3.696e-11,
-550000,2.7194e-11,
-450000,2.0957e-11,
-350000,1.8355e-11,
-250000,1.6842e-11,
-150000,1.7022e-11,
-50000,1.7771e-11,
