General parameters:
Start time: 2023             10             29             20              5      11.698792
Finish time: 2023             10             29             20             30       2.917592
Dwell time (ms): 3750.000000
Source chamber pressure: Error-S
Differential chamber pressure: 5.51e-07
Sample chamber pressure: 1.75e-08
Example position (nm): -5500000.000000,-2300000.000000,-1000000.000000
Rotation angle (udeg): 99999995.000000
==========
Instrument status: 
0:Data Directory:/icon/data/2023_09_defect_MoS2_5um_hbn_sub/
1:Sample:MoS2
2:Comments:no
3:PinholePlate:#C13
4:z_Zero:4200
5:Operator:djw77/nav31/kw570
==========
zscan inputs: 
z_sep:50000
z_range:0 -6000000
data_path:/icon/data/2023_09_defect_MoS2_5um_hbn_sub/
example_pos:-5500000 -2300000 -1000000
N_dwell:250
sampling_period:15
make_plots:1
m1:0.9881
m2:-0.0074577
example_pos_norm_1:-4778000 -1833000 -1000000
example_pos_norm_2:-4100000 -1280000 -1000000
==========
Detector params:
Sampling period (ms): 15.000000
N dwell: 250.000000
Filament current (A): 1.540000
Filament emission (mA): 2.346120
Solenoid current (A): NaN
Solenoid shim current (A): NaN
Lens params:
0  685
1  300
2  125
3      -0.002
4       -0.01
5       0.012
6         0.8
7         2.1
8         2.8
9  3000
10  1400
11         0.85
12   0
==========
Data:
z(nm),I(A)
0,1.5903e-11,
-100000,1.8355e-11,
-200000,1.8132e-11,
-300000,1.8354e-11,
-400000,1.7538e-11,
-500000,1.7496e-11,
-600000,1.7699e-11,
-700000,1.7666e-11,
-800000,1.716e-11,
-900000,1.7264e-11,
-1000000,1.7171e-11,
-1100000,1.7058e-11,
-1200000,1.6501e-11,
-1300000,1.6561e-11,
-1400000,1.6577e-11,
-1500000,1.6512e-11,
-1600000,1.6191e-11,
-1700000,1.5768e-11,
-1800000,1.6088e-11,
-1900000,1.573e-11,
-2000000,1.6508e-11,
-2100000,1.7873e-11,
-2200000,1.8057e-11,
-2300000,1.9448e-11,
-2400000,1.9629e-11,
-2500000,2.0848e-11,
-2600000,2.1003e-11,
-2700000,2.0362e-11,
-2800000,2.0174e-11,
-2900000,2.0482e-11,
-3000000,1.976e-11,
-3100000,2.0018e-11,
-3200000,1.9633e-11,
-3300000,1.9787e-11,
-3400000,1.9749e-11,
-3500000,1.9176e-11,
-3600000,1.906e-11,
-3700000,1.8228e-11,
-3800000,1.7913e-11,
-3900000,1.7613e-11,
-4000000,1.731e-11,
-4100000,1.7732e-11,
-4200000,1.6994e-11,
-4300000,1.6826e-11,
-4400000,1.6612e-11,
-4500000,1.6417e-11,
-4600000,1.6732e-11,
-4700000,1.6297e-11,
-4800000,1.6428e-11,
-4900000,1.6017e-11,
-5000000,1.5751e-11,
-5100000,1.5429e-11,
-5200000,1.5056e-11,
-5300000,1.5527e-11,
-5400000,1.533e-11,
-5500000,1.4954e-11,
-5600000,1.4791e-11,
-5700000,1.478e-11,
-5800000,1.4255e-11,
-5900000,1.4359e-11,
-6000000,1.4108e-11,
-5950000,1.4182e-11,
-5850000,1.441e-11,
-5750000,1.4512e-11,
-5650000,1.4414e-11,
-5550000,1.4628e-11,
-5450000,1.503e-11,
-5350000,1.4939e-11,
-5250000,1.5932e-11,
-5150000,1.5484e-11,
-5050000,1.6142e-11,
-4950000,1.5702e-11,
-4850000,1.6016e-11,
-4750000,1.6527e-11,
-4650000,1.6731e-11,
-4550000,1.6678e-11,
-4450000,1.6743e-11,
-4350000,1.6532e-11,
-4250000,1.7238e-11,
-4150000,1.7806e-11,
-4050000,1.7793e-11,
-3950000,1.781e-11,
-3850000,1.8288e-11,
-3750000,1.8218e-11,
-3650000,1.9301e-11,
-3550000,1.8728e-11,
-3450000,1.9446e-11,
-3350000,1.9671e-11,
-3250000,2.0014e-11,
-3150000,2.0243e-11,
-3050000,1.9606e-11,
-2950000,1.9993e-11,
-2850000,2.0179e-11,
-2750000,2.0614e-11,
-2650000,2.1281e-11,
-2550000,2.0863e-11,
-2450000,2.0526e-11,
-2350000,1.9713e-11,
-2250000,1.8779e-11,
-2150000,1.7112e-11,
-2050000,1.6863e-11,
-1950000,1.5799e-11,
-1850000,1.5516e-11,
-1750000,1.4988e-11,
-1650000,1.6144e-11,
-1550000,1.6303e-11,
-1450000,1.5971e-11,
-1350000,1.631e-11,
-1250000,1.6855e-11,
-1150000,1.6696e-11,
-1050000,1.676e-11,
-950000,1.766e-11,
-850000,1.7325e-11,
-750000,1.7419e-11,
-650000,1.8221e-11,
-550000,1.8673e-11,
-450000,1.7819e-11,
-350000,1.8436e-11,
-250000,1.7806e-11,
-150000,1.8433e-11,
-50000,1.861e-11,
