General parameters:
Start time: 2023             10             12             17             52      22.027121
Finish time: 2023             10             12             18             17      14.649734
Dwell time (ms): 3750.000000
Source chamber pressure: Error-S
Differential chamber pressure: 7.80e-07
Sample chamber pressure: 2.18e-08
Example position (nm): -4312000.000000,-705000.000000,-1000000.000000
Rotation angle (udeg): 139999930.000000
==========
Instrument status: 
0:Data Directory:/icon/data/2023_09_defect_MoS2_5um_hbn_sub/
1:Sample:MoS2
2:Comments:no
3:PinholePlate:#C13
4:z_Zero:4200
5:Operator:djw77/nav31/kw570
==========
zscan inputs: 
z_sep:50000
z_range:0 -6000000
data_path:/icon/data/2023_09_defect_MoS2_5um_hbn_sub/
example_pos:-4312000  -705000 -1000000
N_dwell:250
sampling_period:15
make_plots:1
m1:0.98976
m2:-0.0074577
example_pos_norm_1:-4300000  -685000 -1000000
example_pos_norm_2:-4348000  -690000 -1000000
==========
Detector params:
Sampling period (ms): 15.000000
N dwell: 250.000000
Filament current (A): 1.540000
Filament emission (mA): 1.866294
Solenoid current (A): NaN
Solenoid shim current (A): NaN
Lens params:
0  685
1  300
2  125
3      -0.002
4       -0.01
5       0.012
6         0.8
7         2.1
8         2.8
9  3000
10  1400
11         0.85
12   0
==========
Data:
z(nm),I(A)
0,4.239e-11,
-100000,5.1118e-11,
-200000,5.0549e-11,
-300000,6.1621e-11,
-400000,6.5906e-11,
-500000,8.2355e-11,
-600000,9.8721e-11,
-700000,8.0813e-11,
-800000,5.5878e-11,
-900000,4.5365e-11,
-1000000,4.1579e-11,
-1100000,3.9077e-11,
-1200000,3.8454e-11,
-1300000,4.0031e-11,
-1400000,3.9099e-11,
-1500000,3.7684e-11,
-1600000,3.4598e-11,
-1700000,3.3808e-11,
-1800000,3.3198e-11,
-1900000,3.465e-11,
-2000000,3.6528e-11,
-2100000,3.8574e-11,
-2200000,3.7605e-11,
-2300000,3.5074e-11,
-2400000,3.0678e-11,
-2500000,2.7875e-11,
-2600000,2.6754e-11,
-2700000,2.6302e-11,
-2800000,2.6234e-11,
-2900000,2.7283e-11,
-3000000,2.7194e-11,
-3100000,2.6511e-11,
-3200000,2.513e-11,
-3300000,2.4211e-11,
-3400000,2.319e-11,
-3500000,2.1511e-11,
-3600000,2.121e-11,
-3700000,2.077e-11,
-3800000,2.0392e-11,
-3900000,2.0039e-11,
-4000000,1.942e-11,
-4100000,1.887e-11,
-4200000,1.8824e-11,
-4300000,1.8243e-11,
-4400000,1.747e-11,
-4500000,1.7087e-11,
-4600000,1.6564e-11,
-4700000,1.6946e-11,
-4800000,1.6015e-11,
-4900000,1.5986e-11,
-5000000,1.5647e-11,
-5100000,1.5586e-11,
-5200000,1.495e-11,
-5300000,1.49e-11,
-5400000,1.4789e-11,
-5500000,1.6982e-11,
-5600000,1.644e-11,
-5700000,1.5864e-11,
-5800000,1.4736e-11,
-5900000,1.3496e-11,
-6000000,1.3629e-11,
-5950000,1.382e-11,
-5850000,1.4344e-11,
-5750000,1.5414e-11,
-5650000,1.6009e-11,
-5550000,1.6621e-11,
-5450000,1.5881e-11,
-5350000,1.4532e-11,
-5250000,1.484e-11,
-5150000,1.5077e-11,
-5050000,1.4834e-11,
-4950000,1.5203e-11,
-4850000,1.5678e-11,
-4750000,1.5883e-11,
-4650000,1.6392e-11,
-4550000,1.6564e-11,
-4450000,1.7014e-11,
-4350000,1.7577e-11,
-4250000,1.8203e-11,
-4150000,1.8751e-11,
-4050000,1.9355e-11,
-3950000,1.9776e-11,
-3850000,1.9622e-11,
-3750000,1.9696e-11,
-3650000,2.0426e-11,
-3550000,2.104e-11,
-3450000,2.187e-11,
-3350000,2.306e-11,
-3250000,2.3965e-11,
-3150000,2.4943e-11,
-3050000,2.6112e-11,
-2950000,2.7086e-11,
-2850000,2.5961e-11,
-2750000,2.5896e-11,
-2650000,2.6028e-11,
-2550000,2.776e-11,
-2450000,2.898e-11,
-2350000,3.2066e-11,
-2250000,3.57e-11,
-2150000,3.7424e-11,
-2050000,3.7553e-11,
-1950000,3.5418e-11,
-1850000,3.3697e-11,
-1750000,3.267e-11,
-1650000,3.3882e-11,
-1550000,3.612e-11,
-1450000,3.9059e-11,
-1350000,3.9973e-11,
-1250000,3.8934e-11,
-1150000,3.8343e-11,
-1050000,4.0105e-11,
-950000,4.3567e-11,
-850000,5.0419e-11,
-750000,6.2782e-11,
-650000,9.5208e-11,
-550000,9.622e-11,
-450000,7.7664e-11,
-350000,6.0921e-11,
-250000,5.4059e-11,
-150000,4.7042e-11,
-50000,4.9445e-11,
