General parameters:
Start time: 2023             10             29             17             49      35.498802
Finish time: 2023             10             29             18             14      30.338918
Dwell time (ms): 3750.000000
Source chamber pressure: Error-S
Differential chamber pressure: 5.54e-07
Sample chamber pressure: 1.71e-08
Example position (nm): -4065000.000000,-1288000.000000,-1000000.000000
Rotation angle (udeg): 97499835.000000
==========
Instrument status: 
0:Data Directory:/icon/data/2023_09_defect_MoS2_5um_hbn_sub/
1:Sample:MoS2
2:Comments:no
3:PinholePlate:#C13
4:z_Zero:4200
5:Operator:djw77/nav31/kw570
==========
zscan inputs: 
z_sep:50000
z_range:0 -6000000
data_path:/icon/data/2023_09_defect_MoS2_5um_hbn_sub/
example_pos:-4065000 -1288000 -1000000
N_dwell:250
sampling_period:15
make_plots:1
m1:0.9881
m2:-0.0074577
example_pos_norm_1:-4067000 -1266000 -1000000
example_pos_norm_2:-4100000 -1280000 -1000000
==========
Detector params:
Sampling period (ms): 15.000000
N dwell: 250.000000
Filament current (A): 1.540000
Filament emission (mA): 2.345436
Solenoid current (A): NaN
Solenoid shim current (A): NaN
Lens params:
0  685
1  300
2  125
3      -0.002
4       -0.01
5       0.012
6         0.8
7         2.1
8         2.8
9  3000
10  1400
11         0.85
12   0
==========
Data:
z(nm),I(A)
0,3.5456e-11,
-100000,3.2975e-11,
-200000,3.4786e-11,
-300000,3.6352e-11,
-400000,4.4389e-11,
-500000,6.0132e-11,
-600000,8.1821e-11,
-700000,9.0387e-11,
-800000,7.9394e-11,
-900000,5.7999e-11,
-1000000,4.6243e-11,
-1100000,4.1138e-11,
-1200000,4.0744e-11,
-1300000,4.9267e-11,
-1400000,5.921e-11,
-1500000,7.2055e-11,
-1600000,7.3607e-11,
-1700000,6.9219e-11,
-1800000,5.5775e-11,
-1900000,4.2692e-11,
-2000000,3.7024e-11,
-2100000,3.8634e-11,
-2200000,4.5649e-11,
-2300000,5.544e-11,
-2400000,6.8878e-11,
-2500000,7.5636e-11,
-2600000,6.9998e-11,
-2700000,5.7064e-11,
-2800000,4.3838e-11,
-2900000,3.5677e-11,
-3000000,3.063e-11,
-3100000,2.8275e-11,
-3200000,2.6846e-11,
-3300000,2.6436e-11,
-3400000,2.6545e-11,
-3500000,2.6123e-11,
-3600000,2.6705e-11,
-3700000,2.515e-11,
-3800000,2.3081e-11,
-3900000,2.2128e-11,
-4000000,2.0947e-11,
-4100000,2.0049e-11,
-4200000,1.9261e-11,
-4300000,1.8827e-11,
-4400000,1.7888e-11,
-4500000,1.8051e-11,
-4600000,1.7186e-11,
-4700000,1.7168e-11,
-4800000,1.6677e-11,
-4900000,1.6314e-11,
-5000000,1.5676e-11,
-5100000,1.5399e-11,
-5200000,1.4991e-11,
-5300000,1.4706e-11,
-5400000,1.4457e-11,
-5500000,1.5223e-11,
-5600000,1.5712e-11,
-5700000,1.3517e-11,
-5800000,1.3924e-11,
-5900000,1.3627e-11,
-6000000,1.3603e-11,
-5950000,1.339e-11,
-5850000,1.3655e-11,
-5750000,1.3662e-11,
-5650000,1.4265e-11,
-5550000,1.5978e-11,
-5450000,1.3892e-11,
-5350000,1.4326e-11,
-5250000,1.4527e-11,
-5150000,1.531e-11,
-5050000,1.5158e-11,
-4950000,1.598e-11,
-4850000,1.644e-11,
-4750000,1.7025e-11,
-4650000,1.695e-11,
-4550000,1.7741e-11,
-4450000,1.8293e-11,
-4350000,1.8306e-11,
-4250000,1.932e-11,
-4150000,1.9464e-11,
-4050000,2.0334e-11,
-3950000,2.1652e-11,
-3850000,2.2638e-11,
-3750000,2.3835e-11,
-3650000,2.6298e-11,
-3550000,2.592e-11,
-3450000,2.6726e-11,
-3350000,2.6646e-11,
-3250000,2.6884e-11,
-3150000,2.7722e-11,
-3050000,2.8762e-11,
-2950000,3.2024e-11,
-2850000,4.0322e-11,
-2750000,5.055e-11,
-2650000,6.4739e-11,
-2550000,7.4594e-11,
-2450000,7.4122e-11,
-2350000,6.2265e-11,
-2250000,5.0855e-11,
-2150000,4.1532e-11,
-2050000,3.7673e-11,
-1950000,4.0116e-11,
-1850000,4.8425e-11,
-1750000,6.3928e-11,
-1650000,7.2912e-11,
-1550000,7.4381e-11,
-1450000,6.7417e-11,
-1350000,5.361e-11,
-1250000,4.5343e-11,
-1150000,4.3992e-11,
-1050000,4.6813e-11,
-950000,5.4248e-11,
-850000,6.9921e-11,
-750000,9.1404e-11,
-650000,9.249e-11,
-550000,7.369e-11,
-450000,5.5318e-11,
-350000,4.2941e-11,
-250000,3.9798e-11,
-150000,3.688e-11,
-50000,3.4502e-11,
