General parameters:
Start time: 2023             10             27             14             46      37.400489
Finish time: 2023             10             27             15             11      29.856229
Dwell time (ms): 3750.000000
Source chamber pressure: Error-S
Differential chamber pressure: 6.12e-07
Sample chamber pressure: 1.89e-08
Example position (nm): -4298000.000000,-411000.000000,-1000000.000000
Rotation angle (udeg): 159999920.000000
==========
Instrument status: 
0:Data Directory:/icon/data/2023_09_defect_MoS2_5um_hbn_sub/
1:Sample:MoS2
2:Comments:no
3:PinholePlate:#C13
4:z_Zero:4200
5:Operator:djw77/nav31/kw570
==========
zscan inputs: 
z_sep:50000
z_range:0 -6000000
data_path:/icon/data/2023_09_defect_MoS2_5um_hbn_sub/
example_pos:-4298000  -411000 -1000000
N_dwell:250
sampling_period:15
make_plots:1
m1:0.9881
m2:-0.0074577
example_pos_norm_1:-4280000  -396000 -1000000
example_pos_norm_2:-4312000  -381000 -1000000
==========
Detector params:
Sampling period (ms): 15.000000
N dwell: 250.000000
Filament current (A): 1.540000
Filament emission (mA): 2.261304
Solenoid current (A): NaN
Solenoid shim current (A): NaN
Lens params:
0  685
1  300
2  125
3      -0.002
4       -0.01
5       0.012
6         0.8
7         2.1
8         2.8
9  3000
10  1400
11         0.85
12   0
==========
Data:
z(nm),I(A)
0,3.3334e-11,
-100000,3.2786e-11,
-200000,4.213e-11,
-300000,5.608e-11,
-400000,7.8516e-11,
-500000,8.8236e-11,
-600000,8.2614e-11,
-700000,6.3433e-11,
-800000,5.0261e-11,
-900000,3.7253e-11,
-1000000,3.806e-11,
-1100000,4.2507e-11,
-1200000,5.3276e-11,
-1300000,6.8736e-11,
-1400000,7.2661e-11,
-1500000,6.9228e-11,
-1600000,5.8018e-11,
-1700000,4.216e-11,
-1800000,3.3211e-11,
-1900000,3.1627e-11,
-2000000,3.6132e-11,
-2100000,4.65e-11,
-2200000,5.7856e-11,
-2300000,6.454e-11,
-2400000,6.2134e-11,
-2500000,5.1753e-11,
-2600000,3.9806e-11,
-2700000,3.0128e-11,
-2800000,2.5322e-11,
-2900000,2.2945e-11,
-3000000,2.2121e-11,
-3100000,2.2384e-11,
-3200000,2.2552e-11,
-3300000,2.3121e-11,
-3400000,2.1773e-11,
-3500000,2.0701e-11,
-3600000,1.917e-11,
-3700000,1.8178e-11,
-3800000,1.7202e-11,
-3900000,1.6575e-11,
-4000000,1.6056e-11,
-4100000,1.5629e-11,
-4200000,1.5308e-11,
-4300000,1.5008e-11,
-4400000,1.5086e-11,
-4500000,1.429e-11,
-4600000,1.3998e-11,
-4700000,1.3678e-11,
-4800000,1.3665e-11,
-4900000,1.3553e-11,
-5000000,1.3352e-11,
-5100000,1.2678e-11,
-5200000,1.2905e-11,
-5300000,1.2122e-11,
-5400000,1.2708e-11,
-5500000,1.1183e-11,
-5600000,1.1764e-11,
-5700000,1.1277e-11,
-5800000,1.1786e-11,
-5900000,1.1864e-11,
-6000000,1.1353e-11,
-5950000,1.15e-11,
-5850000,1.1735e-11,
-5750000,1.1765e-11,
-5650000,1.0926e-11,
-5550000,1.1153e-11,
-5450000,1.1743e-11,
-5350000,1.226e-11,
-5250000,1.2443e-11,
-5150000,1.2935e-11,
-5050000,1.2818e-11,
-4950000,1.2786e-11,
-4850000,1.3124e-11,
-4750000,1.3354e-11,
-4650000,1.3863e-11,
-4550000,1.431e-11,
-4450000,1.4263e-11,
-4350000,1.4779e-11,
-4250000,1.4698e-11,
-4150000,1.5225e-11,
-4050000,1.5921e-11,
-3950000,1.6147e-11,
-3850000,1.6491e-11,
-3750000,1.7388e-11,
-3650000,1.9127e-11,
-3550000,1.9975e-11,
-3450000,2.1436e-11,
-3350000,2.2502e-11,
-3250000,2.2546e-11,
-3150000,2.2978e-11,
-3050000,2.2226e-11,
-2950000,2.2814e-11,
-2850000,2.3836e-11,
-2750000,2.6888e-11,
-2650000,3.4103e-11,
-2550000,4.5376e-11,
-2450000,5.7537e-11,
-2350000,6.4499e-11,
-2250000,6.3346e-11,
-2150000,5.2198e-11,
-2050000,4.1325e-11,
-1950000,3.3704e-11,
-1850000,3.1704e-11,
-1750000,3.6102e-11,
-1650000,4.9684e-11,
-1550000,6.4688e-11,
-1450000,7.2557e-11,
-1350000,7.2502e-11,
-1250000,6.1537e-11,
-1150000,4.8175e-11,
-1050000,4.1628e-11,
-950000,3.9518e-11,
-850000,4.4592e-11,
-750000,5.6669e-11,
-650000,7.5532e-11,
-550000,8.8017e-11,
-450000,8.504e-11,
-350000,6.7653e-11,
-250000,4.8606e-11,
-150000,3.8757e-11,
-50000,3.3944e-11,
