General parameters:
Start time: 2023             10             18             12              8      21.906856
Finish time: 2023             10             18             12             33      16.986178
Dwell time (ms): 3750.000000
Source chamber pressure: Error-S
Differential chamber pressure: 7.98e-07
Sample chamber pressure: 1.97e-08
Example position (nm): -4317000.000000,-777000.000000,-1000000.000000
Rotation angle (udeg): 135000025.000000
==========
Instrument status: 
0:Data Directory:/icon/data/2023_09_defect_MoS2_5um_hbn_sub/
1:Sample:MoS2
2:Comments:no
3:PinholePlate:#C13
4:z_Zero:4200
5:Operator:djw77/nav31/kw570
==========
zscan inputs: 
z_sep:50000
z_range:0 -6000000
data_path:/icon/data/2023_09_defect_MoS2_5um_hbn_sub/
example_pos:-4317000  -777000 -1000000
N_dwell:250
sampling_period:15
make_plots:1
m1:0.98976
m2:-0.0074577
example_pos_norm_1:-4306000  -757000 -1000000
example_pos_norm_2:-4342000  -747000 -1000000
==========
Detector params:
Sampling period (ms): 15.000000
N dwell: 250.000000
Filament current (A): 1.540000
Filament emission (mA): 2.050632
Solenoid current (A): NaN
Solenoid shim current (A): NaN
Lens params:
0  685
1  300
2  125
3      -0.002
4       -0.01
5       0.012
6         0.8
7         2.1
8         2.8
9  3000
10  1400
11         0.85
12   0
==========
Data:
z(nm),I(A)
0,2.4385e-11,
-100000,2.5059e-11,
-200000,2.7651e-11,
-300000,3.1629e-11,
-400000,4.1138e-11,
-500000,5.4669e-11,
-600000,6.0994e-11,
-700000,5.5493e-11,
-800000,4.3454e-11,
-900000,3.5402e-11,
-1000000,2.9893e-11,
-1100000,2.7919e-11,
-1200000,2.6993e-11,
-1300000,2.6652e-11,
-1400000,2.612e-11,
-1500000,2.4886e-11,
-1600000,2.4132e-11,
-1700000,2.3901e-11,
-1800000,2.4846e-11,
-1900000,2.7256e-11,
-2000000,3.1016e-11,
-2100000,3.4173e-11,
-2200000,3.3986e-11,
-2300000,3.1372e-11,
-2400000,2.674e-11,
-2500000,2.2677e-11,
-2600000,1.9965e-11,
-2700000,1.8444e-11,
-2800000,1.8367e-11,
-2900000,1.7788e-11,
-3000000,1.7573e-11,
-3100000,1.6861e-11,
-3200000,1.7036e-11,
-3300000,1.6549e-11,
-3400000,1.542e-11,
-3500000,1.5257e-11,
-3600000,1.5058e-11,
-3700000,1.5457e-11,
-3800000,1.5064e-11,
-3900000,1.5285e-11,
-4000000,1.5148e-11,
-4100000,1.4893e-11,
-4200000,1.416e-11,
-4300000,1.4025e-11,
-4400000,1.2492e-11,
-4500000,1.2123e-11,
-4600000,1.1704e-11,
-4700000,1.1275e-11,
-4800000,1.136e-11,
-4900000,1.0923e-11,
-5000000,1.0355e-11,
-5100000,1.0054e-11,
-5200000,1.0554e-11,
-5300000,9.72e-12,
-5400000,1.0002e-11,
-5500000,1.1775e-11,
-5600000,1.1274e-11,
-5700000,1.0949e-11,
-5800000,9.678e-12,
-5900000,9.0432e-12,
-6000000,9.3792e-12,
-5950000,8.798e-12,
-5850000,9.4012e-12,
-5750000,1.0281e-11,
-5650000,1.1568e-11,
-5550000,1.1762e-11,
-5450000,1.139e-11,
-5350000,9.9532e-12,
-5250000,1.0034e-11,
-5150000,1.0177e-11,
-5050000,1.0327e-11,
-4950000,1.0755e-11,
-4850000,1.0526e-11,
-4750000,1.066e-11,
-4650000,1.1557e-11,
-4550000,1.1676e-11,
-4450000,1.2434e-11,
-4350000,1.2888e-11,
-4250000,1.3594e-11,
-4150000,1.446e-11,
-4050000,1.4709e-11,
-3950000,1.461e-11,
-3850000,1.5376e-11,
-3750000,1.5241e-11,
-3650000,1.4772e-11,
-3550000,1.465e-11,
-3450000,1.5146e-11,
-3350000,1.6168e-11,
-3250000,1.6176e-11,
-3150000,1.6178e-11,
-3050000,1.6936e-11,
-2950000,1.7218e-11,
-2850000,1.7299e-11,
-2750000,1.7057e-11,
-2650000,1.8175e-11,
-2550000,1.9872e-11,
-2450000,2.3319e-11,
-2350000,2.8121e-11,
-2250000,3.2695e-11,
-2150000,3.3428e-11,
-2050000,3.228e-11,
-1950000,2.86e-11,
-1850000,2.5651e-11,
-1750000,2.3929e-11,
-1650000,2.381e-11,
-1550000,2.4224e-11,
-1450000,2.5369e-11,
-1350000,2.5312e-11,
-1250000,2.7487e-11,
-1150000,2.6532e-11,
-1050000,2.9286e-11,
-950000,3.123e-11,
-850000,3.7573e-11,
-750000,4.8698e-11,
-650000,5.7825e-11,
-550000,5.6748e-11,
-450000,4.563e-11,
-350000,3.4344e-11,
-250000,2.8348e-11,
-150000,2.5059e-11,
-50000,2.5216e-11,
