General parameters:
Start time: 2023             10              6             16             45      22.128393
Finish time: 2023             10              6             16             53       46.80559
Dwell time (ms): 3750.000000
Source chamber pressure: Error-S
Differential chamber pressure: 7.71e-07
Sample chamber pressure: 2.15e-08
Example position (nm): -4069000.000000,-1273000.000000,-1000000.000000
Rotation angle (udeg): 99999965.000000
==========
Instrument status: 
0:Data Directory:/icon/data/2023_09_defect_MoS2_5um_hbn_sub/
1:Sample:MoS2
2:Comments:no
3:PinholePlate:#C13
4:z_Zero:4200
5:Operator:djw77/nav31/kw570
==========
zscan inputs: 
z_sep:50000
z_range:0 -6000000
data_path:/icon/data/2023_09_defect_MoS2_5um_hbn_sub/
example_pos:-4069000 -1273000 -1000000
N_dwell:250
sampling_period:15
make_plots:1
m1:0.98976
m2:-0.0074577
example_pos_norm_1:-4074000 -1238000 -1000000
example_pos_norm_2:-4039000 -1253000 -1000000
==========
Detector params:
Sampling period (ms): 15.000000
N dwell: 250.000000
Filament current (A): 1.540000
Filament emission (mA): 1.647756
Solenoid current (A): NaN
Solenoid shim current (A): NaN
Lens params:
0  685
1  300
2  125
3      -0.002
4       -0.01
5       0.012
6         0.8
7         2.1
8         2.8
9  3000
10  1400
11         0.85
12   0
==========
Data:
z(nm),I(A)
0,5.6194e-11,
-100000,7.394e-11,
-200000,7.955e-11,
-300000,8.1176e-11,
-400000,8.4288e-11,
-500000,7.1357e-11,
-600000,9.1284e-11,
-700000,1.1211e-10,
-800000,9.7378e-11,
-900000,7.5938e-11,
-1000000,7.0628e-11,
-1100000,6.7979e-11,
-1200000,5.5475e-11,
-1300000,4.4547e-11,
-1400000,4.8987e-11,
-1500000,4.6338e-11,
-1600000,4.5617e-11,
-1700000,4.2714e-11,
-1800000,3.7864e-11,
-1900000,3.2188e-11,
-2000000,2.8813e-11,
-2100000,2.7712e-11,
-2200000,2.8925e-11,
-2300000,3.0586e-11,
-2400000,3.4202e-11,
-2500000,3.4732e-11,
-2600000,2.9645e-11,
-2700000,2.682e-11,
-2800000,2.4183e-11,
-2900000,2.1852e-11,
-3000000,2.0711e-11,
-3100000,1.9048e-11,
-3200000,1.8106e-11,
-3300000,1.7614e-11,
-3400000,1.758e-11,
-3500000,1.6408e-11,
-3600000,1.6021e-11,
-3700000,1.5855e-11,
-3800000,1.5014e-11,
-3900000,1.4766e-11,
-4000000,1.4743e-11,
-4100000,1.4237e-11,
-4200000,1.3459e-11,
-4300000,1.3799e-11,
-4400000,1.3437e-11,
-4500000,1.3375e-11,
-4600000,1.3027e-11,
-4700000,1.2446e-11,
-4800000,1.2498e-11,
-4900000,1.2138e-11,
-5000000,1.1792e-11,
-5100000,1.1496e-11,
-5200000,1.1098e-11,
-5300000,1.063e-11,
-5400000,1.1227e-11,
-5500000,1.0992e-11,
-5600000,1.0787e-11,
-5700000,1.0949e-11,
-5800000,1.0516e-11,
-5900000,1.0228e-11,
-6000000,1.0118e-11,
-5950000,1.0202e-11,
-5850000,1.0432e-11,
-5750000,1.0707e-11,
-5650000,1.0771e-11,
-5550000,1.1028e-11,
-5450000,1.1264e-11,
-5350000,1.1492e-11,
-5250000,1.1885e-11,
-5150000,1.1754e-11,
-5050000,1.1845e-11,
-4950000,1.203e-11,
-4850000,1.2338e-11,
-4750000,1.2904e-11,
-4650000,1.2994e-11,
-4550000,1.3223e-11,
-4450000,1.3472e-11,
-4350000,1.343e-11,
-4250000,1.3711e-11,
-4150000,1.4428e-11,
-4050000,1.4281e-11,
-3950000,1.471e-11,
-3850000,1.527e-11,
-3750000,1.5922e-11,
-3650000,1.6267e-11,
-3550000,1.6872e-11,
-3450000,1.6759e-11,
-3350000,1.7564e-11,
-3250000,1.8204e-11,
-3150000,1.9358e-11,
-3050000,1.9929e-11,
-2950000,2.1605e-11,
-2850000,2.3456e-11,
-2750000,2.6186e-11,
-2650000,2.8158e-11,
-2550000,3.2912e-11,
-2450000,3.6487e-11,
-2350000,3.3215e-11,
-2250000,3.0309e-11,
-2150000,2.9534e-11,
-2050000,2.8884e-11,
-1950000,3.198e-11,
-1850000,3.5893e-11,
-1750000,4.2453e-11,
-1650000,4.4767e-11,
-1550000,4.6675e-11,
-1450000,4.8349e-11,
-1350000,4.6359e-11,
-1250000,4.9152e-11,
-1150000,5.7778e-11,
-1050000,6.7766e-11,
-950000,7.39e-11,
-850000,8.1021e-11,
-750000,8.456e-11,
-650000,1.0133e-10,
-550000,9.1485e-11,
-450000,8.2003e-11,
-350000,9.2475e-11,
-250000,7.9552e-11,
-150000,7.0797e-11,
-50000,6.9184e-11,
