General parameters:
Start time: 2023             10              5              0             52      24.574959
Finish time: 2023             10              5              1              0      50.066933
Dwell time (ms): 3750.000000
Source chamber pressure: Error-S
Differential chamber pressure: 7.66e-07
Sample chamber pressure: 2.37e-08
Example position (nm): -4069000.000000,-1273000.000000,-1000000.000000
Rotation angle (udeg): 100000120.000000
==========
Instrument status: 
0:Data Directory:/icon/data/2023_09_defect_MoS2_5um_hbn_sub/
1:Sample:MoS2
2:Comments:no
3:PinholePlate:#C13
4:z_Zero:4200
5:Operator:djw77/nav31/kw570
==========
zscan inputs: 
z_sep:50000
z_range:0 -6000000
data_path:/icon/data/2023_09_defect_MoS2_5um_hbn_sub/
example_pos:-4069000 -1273000 -1000000
N_dwell:250
sampling_period:15
make_plots:1
m1:0.98976
m2:-0.0074577
==========
Detector params:
Sampling period (ms): 15.000000
N dwell: 250.000000
Filament current (A): 1.540000
Filament emission (mA): 1.524978
Solenoid current (A): NaN
Solenoid shim current (A): NaN
Lens params:
0  685
1  300
2  125
3      -0.002
4       -0.01
5       0.012
6         0.8
7         2.1
8         2.8
9  3000
10  1400
11         0.85
12   0
==========
Data:
z(nm),I(A)
0,5.5716e-11,
-100000,5.5556e-11,
-200000,5.6767e-11,
-300000,5.9636e-11,
-400000,6.619e-11,
-500000,7.8054e-11,
-600000,9.8202e-11,
-700000,1.0978e-10,
-800000,1.0396e-10,
-900000,8.6224e-11,
-1000000,7.3198e-11,
-1100000,6.6001e-11,
-1200000,6.4632e-11,
-1300000,6.9042e-11,
-1400000,7.9756e-11,
-1500000,9.3654e-11,
-1600000,9.7457e-11,
-1700000,9.3168e-11,
-1800000,8.1066e-11,
-1900000,6.7766e-11,
-2000000,6.151e-11,
-2100000,6.2393e-11,
-2200000,7.1531e-11,
-2300000,8.5351e-11,
-2400000,1.0244e-10,
-2500000,1.1189e-10,
-2600000,1.0907e-10,
-2700000,9.581e-11,
-2800000,7.8733e-11,
-2900000,6.4847e-11,
-3000000,5.5729e-11,
-3100000,5.2032e-11,
-3200000,5.0534e-11,
-3300000,5.0212e-11,
-3400000,4.9332e-11,
-3500000,5.1164e-11,
-3600000,5.1834e-11,
-3700000,5.0872e-11,
-3800000,4.737e-11,
-3900000,4.2849e-11,
-4000000,4.0469e-11,
-4100000,3.7476e-11,
-4200000,3.5956e-11,
-4300000,3.5696e-11,
-4400000,3.3996e-11,
-4500000,3.2559e-11,
-4600000,3.2143e-11,
-4700000,3.1356e-11,
-4800000,3.119e-11,
-4900000,3.0717e-11,
-5000000,2.9926e-11,
-5100000,3.0124e-11,
-5200000,2.8912e-11,
-5300000,2.8097e-11,
-5400000,2.8226e-11,
-5500000,3.0835e-11,
-5600000,3.0412e-11,
-5700000,2.9872e-11,
-5800000,2.7788e-11,
-5900000,2.6902e-11,
-6000000,2.6809e-11,
-5950000,2.6604e-11,
-5850000,2.6834e-11,
-5750000,2.7488e-11,
-5650000,3.0309e-11,
-5550000,3.0553e-11,
-5450000,3.0556e-11,
-5350000,2.8178e-11,
-5250000,2.829e-11,
-5150000,2.9036e-11,
-5050000,2.9067e-11,
-4950000,2.9491e-11,
-4850000,3.1025e-11,
-4750000,3.0718e-11,
-4650000,3.1118e-11,
-4550000,3.1622e-11,
-4450000,3.2902e-11,
-4350000,3.3516e-11,
-4250000,3.5226e-11,
-4150000,3.6576e-11,
-4050000,3.7337e-11,
-3950000,4.044e-11,
-3850000,4.3929e-11,
-3750000,4.8779e-11,
-3650000,5.198e-11,
-3550000,5.1377e-11,
-3450000,5.0676e-11,
-3350000,5.0421e-11,
-3250000,5.0701e-11,
-3150000,5.0728e-11,
-3050000,5.3628e-11,
-2950000,5.8398e-11,
-2850000,6.9593e-11,
-2750000,8.6268e-11,
-2650000,1.0223e-10,
-2550000,1.1078e-10,
-2450000,1.0967e-10,
-2350000,9.4962e-11,
-2250000,7.9663e-11,
-2150000,6.7592e-11,
-2050000,6.1364e-11,
-1950000,6.3868e-11,
-1850000,7.2184e-11,
-1750000,8.665e-11,
-1650000,9.516e-11,
-1550000,9.5645e-11,
-1450000,8.8281e-11,
-1350000,7.472e-11,
-1250000,6.6757e-11,
-1150000,6.3639e-11,
-1050000,6.6328e-11,
-950000,7.6479e-11,
-850000,9.2999e-11,
-750000,1.0752e-10,
-650000,1.0591e-10,
-550000,8.8421e-11,
-450000,7.1923e-11,
-350000,6.2489e-11,
-250000,5.8286e-11,
-150000,5.5838e-11,
-50000,5.6042e-11,
