General parameters:
Start time: 2023             10              4             13             14      44.474833
Finish time: 2023             10              4             13             23       7.786039
Dwell time (ms): 3750.000000
Source chamber pressure: Error-S
Differential chamber pressure: 7.65e-07
Sample chamber pressure: 2.50e-08
Example position (nm): -4074000.000000,-1271000.000000,-1000000.000000
Rotation angle (udeg): 99999885.000000
==========
Instrument status: 
0:Data Directory:/icon/data/2023_09_defect_MoS2_5um_hbn_sub/
1:Sample:MoS2
2:Comments:no
3:PinholePlate:#C13
4:z_Zero:4200
5:Operator:djw77/nav31/kw570
==========
zscan inputs: 
z_sep:50000
z_range:0 -6000000
data_path:/icon/data/2023_09_defect_MoS2_5um_hbn_sub/
example_pos:-4074000 -1271000 -1000000
N_dwell:250
sampling_period:15
make_plots:1
m1:0.98976
m2:-0.0073571
==========
Detector params:
Sampling period (ms): 15.000000
N dwell: 250.000000
Filament current (A): 1.540000
Filament emission (mA): 1.498986
Solenoid current (A): NaN
Solenoid shim current (A): NaN
Lens params:
0  685
1  300
2  125
3      -0.002
4       -0.01
5       0.012
6         0.8
7         2.1
8         2.8
9  3000
10  1400
11         0.85
12   0
==========
Data:
z(nm),I(A)
0,5.8732e-11,
-100000,5.6683e-11,
-200000,5.8134e-11,
-300000,6.0711e-11,
-400000,7.1307e-11,
-500000,8.5407e-11,
-600000,1.0023e-10,
-700000,1.125e-10,
-800000,1.0776e-10,
-900000,9.314e-11,
-1000000,8.1072e-11,
-1100000,7.422e-11,
-1200000,7.1334e-11,
-1300000,7.4506e-11,
-1400000,8.3716e-11,
-1500000,9.3813e-11,
-1600000,9.535e-11,
-1700000,9.1137e-11,
-1800000,8.067e-11,
-1900000,6.8568e-11,
-2000000,6.3796e-11,
-2100000,6.5144e-11,
-2200000,7.0189e-11,
-2300000,8.0683e-11,
-2400000,9.3106e-11,
-2500000,9.7608e-11,
-2600000,9.2477e-11,
-2700000,8.1151e-11,
-2800000,7.0207e-11,
-2900000,6.0153e-11,
-3000000,5.4104e-11,
-3100000,4.8853e-11,
-3200000,4.7581e-11,
-3300000,4.5794e-11,
-3400000,4.4791e-11,
-3500000,4.5246e-11,
-3600000,4.6517e-11,
-3700000,4.578e-11,
-3800000,4.2962e-11,
-3900000,4.0992e-11,
-4000000,3.8224e-11,
-4100000,3.6872e-11,
-4200000,3.5607e-11,
-4300000,3.4493e-11,
-4400000,3.4285e-11,
-4500000,3.3524e-11,
-4600000,3.3068e-11,
-4700000,3.2247e-11,
-4800000,3.2028e-11,
-4900000,3.2054e-11,
-5000000,3.1671e-11,
-5100000,3.1359e-11,
-5200000,3.1244e-11,
-5300000,3.1086e-11,
-5400000,3.0682e-11,
-5500000,3.088e-11,
-5600000,3.0675e-11,
-5700000,3.0499e-11,
-5800000,2.9453e-11,
-5900000,2.883e-11,
-6000000,2.9049e-11,
-5950000,2.9092e-11,
-5850000,2.8544e-11,
-5750000,2.9242e-11,
-5650000,3.031e-11,
-5550000,3.1162e-11,
-5450000,3.1327e-11,
-5350000,3.0822e-11,
-5250000,3.1459e-11,
-5150000,3.1859e-11,
-5050000,3.1962e-11,
-4950000,3.2272e-11,
-4850000,3.2408e-11,
-4750000,3.3625e-11,
-4650000,3.4107e-11,
-4550000,3.4363e-11,
-4450000,3.4357e-11,
-4350000,3.5194e-11,
-4250000,3.5559e-11,
-4150000,3.6578e-11,
-4050000,3.712e-11,
-3950000,3.7532e-11,
-3850000,3.9345e-11,
-3750000,4.198e-11,
-3650000,4.2849e-11,
-3550000,4.2252e-11,
-3450000,4.3352e-11,
-3350000,4.3156e-11,
-3250000,4.5391e-11,
-3150000,4.7349e-11,
-3050000,4.8596e-11,
-2950000,5.2676e-11,
-2850000,5.8201e-11,
-2750000,6.5706e-11,
-2650000,7.7056e-11,
-2550000,8.8165e-11,
-2450000,8.9874e-11,
-2350000,8.2976e-11,
-2250000,7.6609e-11,
-2150000,7.0957e-11,
-2050000,6.796e-11,
-1950000,6.798e-11,
-1850000,7.4642e-11,
-1750000,8.6506e-11,
-1650000,9.4127e-11,
-1550000,9.5538e-11,
-1450000,9.0219e-11,
-1350000,8.2974e-11,
-1250000,7.5281e-11,
-1150000,7.4416e-11,
-1050000,7.9471e-11,
-950000,8.7218e-11,
-850000,9.9731e-11,
-750000,1.115e-10,
-650000,1.0987e-10,
-550000,9.5239e-11,
-450000,7.9634e-11,
-350000,7.188e-11,
-250000,6.5297e-11,
-150000,6.2132e-11,
-50000,5.9976e-11,
