General parameters:
Start time: 2023             11             14             15             43       21.18865
Finish time: 2023             11             14             16              8      16.543887
Dwell time (ms): 3750.000000
Source chamber pressure: Error-S
Differential chamber pressure: 8.01e-07
Sample chamber pressure: 1.69e-08
Example position (nm): -4391000.000000,204000.000000,-750000.000000
Rotation angle (udeg): 130000170.000000
==========
Instrument status: 
0:Data Directory:/icon/data/2023_11_defect2_MoS2_5um_hbn_sub/
1:Sample:MoS2
2:Comments:no
3:PinholePlate:#C13
4:z_Zero:4200
5:Operator:djw77/nav31/kw570
==========
zscan inputs: 
z_sep:50000
z_range:0 -6000000
data_path:/icon/data/2023_11_defect2_MoS2_5um_hbn_sub/
example_pos:-4391000   204000  -750000
N_dwell:250
sampling_period:15
make_plots:1
m1:0.98976
m2:-0.0073571
example_pos_norm_1:-4411000   219000  -750000
example_pos_norm_2:-4426000   206000  -750000
==========
Detector params:
Sampling period (ms): 15.000000
N dwell: 250.000000
Filament current (A): 1.540000
Filament emission (mA): 2.320128
Solenoid current (A): NaN
Solenoid shim current (A): NaN
Lens params:
0  685
1  300
2  125
3      -0.002
4       -0.01
5       0.012
6         0.8
7         2.1
8         2.8
9  3000
10  1400
11         0.85
12   0
==========
Data:
z(nm),I(A)
0,3.8998e-11,
-100000,3.9517e-11,
-200000,4.0366e-11,
-300000,4.2937e-11,
-400000,4.8702e-11,
-500000,5.8622e-11,
-600000,6.7207e-11,
-700000,6.5982e-11,
-800000,5.7063e-11,
-900000,5.0712e-11,
-1000000,4.7494e-11,
-1100000,4.6883e-11,
-1200000,4.6556e-11,
-1300000,5.1658e-11,
-1400000,5.6959e-11,
-1500000,5.9504e-11,
-1600000,5.8698e-11,
-1700000,5.3234e-11,
-1800000,4.742e-11,
-1900000,4.274e-11,
-2000000,4.1773e-11,
-2100000,4.4197e-11,
-2200000,4.9178e-11,
-2300000,5.5006e-11,
-2400000,6.1952e-11,
-2500000,6.2338e-11,
-2600000,5.8286e-11,
-2700000,5.0246e-11,
-2800000,4.269e-11,
-2900000,3.7489e-11,
-3000000,3.5067e-11,
-3100000,3.2783e-11,
-3200000,3.3285e-11,
-3300000,3.2504e-11,
-3400000,3.2439e-11,
-3500000,3.2421e-11,
-3600000,3.1696e-11,
-3700000,3.0515e-11,
-3800000,2.892e-11,
-3900000,2.7748e-11,
-4000000,2.6335e-11,
-4100000,2.5188e-11,
-4200000,2.4445e-11,
-4300000,2.3822e-11,
-4400000,2.3406e-11,
-4500000,2.2318e-11,
-4600000,2.1986e-11,
-4700000,2.1655e-11,
-4800000,2.197e-11,
-4900000,2.1326e-11,
-5000000,2.0564e-11,
-5100000,2.0438e-11,
-5200000,1.9998e-11,
-5300000,1.991e-11,
-5400000,2.0148e-11,
-5500000,2.0587e-11,
-5600000,2.0264e-11,
-5700000,2.0122e-11,
-5800000,1.9694e-11,
-5900000,1.8758e-11,
-6000000,1.8612e-11,
-5950000,1.8577e-11,
-5850000,1.9116e-11,
-5750000,1.9581e-11,
-5650000,1.9912e-11,
-5550000,2.0467e-11,
-5450000,2.0724e-11,
-5350000,1.9837e-11,
-5250000,2.034e-11,
-5150000,2.0334e-11,
-5050000,2.0067e-11,
-4950000,2.1166e-11,
-4850000,2.1425e-11,
-4750000,2.1654e-11,
-4650000,2.213e-11,
-4550000,2.2015e-11,
-4450000,2.2874e-11,
-4350000,2.2744e-11,
-4250000,2.3518e-11,
-4150000,2.4821e-11,
-4050000,2.5773e-11,
-3950000,2.6429e-11,
-3850000,2.7886e-11,
-3750000,2.9896e-11,
-3650000,3.12e-11,
-3550000,3.117e-11,
-3450000,3.1664e-11,
-3350000,3.1925e-11,
-3250000,3.2162e-11,
-3150000,3.2385e-11,
-3050000,3.3929e-11,
-2950000,3.6658e-11,
-2850000,3.9722e-11,
-2750000,4.5885e-11,
-2650000,5.4789e-11,
-2550000,6.0748e-11,
-2450000,6.3358e-11,
-2350000,5.9056e-11,
-2250000,5.3131e-11,
-2150000,4.606e-11,
-2050000,4.2461e-11,
-1950000,4.2132e-11,
-1850000,4.5592e-11,
-1750000,5.119e-11,
-1650000,5.6162e-11,
-1550000,5.9328e-11,
-1450000,5.8573e-11,
-1350000,5.3495e-11,
-1250000,4.8822e-11,
-1150000,4.7101e-11,
-1050000,4.6725e-11,
-950000,4.9042e-11,
-850000,5.3428e-11,
-750000,6.2307e-11,
-650000,6.7273e-11,
-550000,6.3895e-11,
-450000,5.4301e-11,
-350000,4.5893e-11,
-250000,4.194e-11,
-150000,3.9761e-11,
-50000,3.8903e-11,
