General parameters:
Start time: 2023             11             14             17              6       5.032534
Finish time: 2023             11             14             17             31       2.064329
Dwell time (ms): 3750.000000
Source chamber pressure: Error-S
Differential chamber pressure: 8.00e-07
Sample chamber pressure: 1.67e-08
Example position (nm): -4323000.000000,299000.000000,-750000.000000
Rotation angle (udeg): 134999965.000000
==========
Instrument status: 
0:Data Directory:/icon/data/2023_11_defect2_MoS2_5um_hbn_sub/
1:Sample:MoS2
2:Comments:no
3:PinholePlate:#C13
4:z_Zero:4200
5:Operator:djw77/nav31/kw570
==========
zscan inputs: 
z_sep:50000
z_range:0 -6000000
data_path:/icon/data/2023_11_defect2_MoS2_5um_hbn_sub/
example_pos:-4323000   299000  -750000
N_dwell:250
sampling_period:15
make_plots:1
m1:0.98976
m2:-0.0073571
example_pos_norm_1:-4340000   317000  -750000
example_pos_norm_2:-4350000   297000  -750000
==========
Detector params:
Sampling period (ms): 15.000000
N dwell: 250.000000
Filament current (A): 1.540000
Filament emission (mA): 2.324232
Solenoid current (A): NaN
Solenoid shim current (A): NaN
Lens params:
0  685
1  300
2  125
3      -0.002
4       -0.01
5       0.012
6         0.8
7         2.1
8         2.8
9  3000
10  1400
11         0.85
12   0
==========
Data:
z(nm),I(A)
0,4.0996e-11,
-100000,3.9494e-11,
-200000,4.1241e-11,
-300000,4.4006e-11,
-400000,4.9888e-11,
-500000,5.9956e-11,
-600000,6.6499e-11,
-700000,6.5394e-11,
-800000,5.6022e-11,
-900000,4.9444e-11,
-1000000,4.665e-11,
-1100000,4.6092e-11,
-1200000,4.6214e-11,
-1300000,4.9481e-11,
-1400000,5.342e-11,
-1500000,5.5281e-11,
-1600000,5.4599e-11,
-1700000,5.0551e-11,
-1800000,4.4983e-11,
-1900000,4.2116e-11,
-2000000,4.1056e-11,
-2100000,4.2813e-11,
-2200000,4.6888e-11,
-2300000,5.1847e-11,
-2400000,5.6139e-11,
-2500000,5.6481e-11,
-2600000,5.3509e-11,
-2700000,4.7681e-11,
-2800000,4.0768e-11,
-2900000,3.6686e-11,
-3000000,3.3652e-11,
-3100000,3.3176e-11,
-3200000,3.2261e-11,
-3300000,3.3342e-11,
-3400000,3.2783e-11,
-3500000,3.2539e-11,
-3600000,3.2105e-11,
-3700000,3.1314e-11,
-3800000,2.965e-11,
-3900000,2.7909e-11,
-4000000,2.6382e-11,
-4100000,2.5652e-11,
-4200000,2.4571e-11,
-4300000,2.394e-11,
-4400000,2.3416e-11,
-4500000,2.2718e-11,
-4600000,2.2111e-11,
-4700000,2.182e-11,
-4800000,2.1513e-11,
-4900000,2.1599e-11,
-5000000,2.0646e-11,
-5100000,2.0328e-11,
-5200000,1.9921e-11,
-5300000,2.0048e-11,
-5400000,1.9442e-11,
-5500000,2.0464e-11,
-5600000,2.024e-11,
-5700000,2.0106e-11,
-5800000,1.9373e-11,
-5900000,1.9098e-11,
-6000000,1.8568e-11,
-5950000,1.8521e-11,
-5850000,1.8852e-11,
-5750000,1.9224e-11,
-5650000,2.0007e-11,
-5550000,2.0736e-11,
-5450000,2.0582e-11,
-5350000,2.0481e-11,
-5250000,2.0436e-11,
-5150000,2.065e-11,
-5050000,2.0706e-11,
-4950000,2.1009e-11,
-4850000,2.183e-11,
-4750000,2.2261e-11,
-4650000,2.2208e-11,
-4550000,2.2977e-11,
-4450000,2.3085e-11,
-4350000,2.4309e-11,
-4250000,2.4774e-11,
-4150000,2.4894e-11,
-4050000,2.6145e-11,
-3950000,2.737e-11,
-3850000,2.9134e-11,
-3750000,2.9888e-11,
-3650000,3.1757e-11,
-3550000,3.2598e-11,
-3450000,3.3241e-11,
-3350000,3.2875e-11,
-3250000,3.3015e-11,
-3150000,3.3169e-11,
-3050000,3.3276e-11,
-2950000,3.5919e-11,
-2850000,3.8853e-11,
-2750000,4.4616e-11,
-2650000,5.1092e-11,
-2550000,5.5061e-11,
-2450000,5.637e-11,
-2350000,5.3751e-11,
-2250000,4.973e-11,
-2150000,4.4602e-11,
-2050000,4.1906e-11,
-1950000,4.1608e-11,
-1850000,4.3608e-11,
-1750000,4.7903e-11,
-1650000,5.3834e-11,
-1550000,5.5667e-11,
-1450000,5.4972e-11,
-1350000,5.1117e-11,
-1250000,4.835e-11,
-1150000,4.5814e-11,
-1050000,4.55e-11,
-950000,4.7736e-11,
-850000,5.2556e-11,
-750000,6.0526e-11,
-650000,6.613e-11,
-550000,6.4397e-11,
-450000,5.4647e-11,
-350000,4.6217e-11,
-250000,4.2782e-11,
-150000,4.0641e-11,
-50000,4.0573e-11,
