General parameters:
Start time: 2023             11             13             12             54       6.612479
Finish time: 2023             11             13             13             19       3.830751
Dwell time (ms): 3750.000000
Source chamber pressure: Error-S
Differential chamber pressure: 7.96e-07
Sample chamber pressure: 1.86e-08
Example position (nm): -4649000.000000,-335000.000000,-750000.000000
Rotation angle (udeg): 104999915.000000
==========
Instrument status: 
0:Data Directory:/icon/data/2023_11_defect2_MoS2_5um_hbn_sub/
1:Sample:MoS2
2:Comments:no
3:PinholePlate:#C13
4:z_Zero:4200
5:Operator:djw77/nav31/kw570
==========
zscan inputs: 
z_sep:50000
z_range:0 -6000000
data_path:/icon/data/2023_11_defect2_MoS2_5um_hbn_sub/
example_pos:-4649000  -335000  -750000
N_dwell:250
sampling_period:15
make_plots:1
m1:0.98976
m2:-0.0073571
example_pos_norm_1:-4674000  -333000  -750000
example_pos_norm_2:-4669000  -353000  -750000
==========
Detector params:
Sampling period (ms): 15.000000
N dwell: 250.000000
Filament current (A): 1.540000
Filament emission (mA): 2.245572
Solenoid current (A): NaN
Solenoid shim current (A): NaN
Lens params:
0  685
1  300
2  125
3      -0.002
4       -0.01
5       0.012
6         0.8
7         2.1
8         2.8
9  3000
10  1400
11         0.85
12   0
==========
Data:
z(nm),I(A)
0,2.847e-11,
-100000,2.9284e-11,
-200000,3.0322e-11,
-300000,3.215e-11,
-400000,3.6534e-11,
-500000,4.4308e-11,
-600000,5.4754e-11,
-700000,5.9016e-11,
-800000,5.6383e-11,
-900000,4.7812e-11,
-1000000,4.1441e-11,
-1100000,3.6446e-11,
-1200000,3.4424e-11,
-1300000,3.3546e-11,
-1400000,3.1979e-11,
-1500000,3.1644e-11,
-1600000,3.0798e-11,
-1700000,3.0271e-11,
-1800000,2.9325e-11,
-1900000,2.9542e-11,
-2000000,3.0605e-11,
-2100000,3.2365e-11,
-2200000,3.339e-11,
-2300000,3.35e-11,
-2400000,3.2416e-11,
-2500000,3.0538e-11,
-2600000,2.7389e-11,
-2700000,2.6086e-11,
-2800000,2.4381e-11,
-2900000,2.3961e-11,
-3000000,2.3592e-11,
-3100000,2.3858e-11,
-3200000,2.3068e-11,
-3300000,2.2307e-11,
-3400000,2.231e-11,
-3500000,2.1061e-11,
-3600000,2.0898e-11,
-3700000,2.0396e-11,
-3800000,1.9298e-11,
-3900000,1.9453e-11,
-4000000,1.8941e-11,
-4100000,1.8717e-11,
-4200000,1.8588e-11,
-4300000,1.8294e-11,
-4400000,1.7748e-11,
-4500000,1.7489e-11,
-4600000,1.7107e-11,
-4700000,1.663e-11,
-4800000,1.627e-11,
-4900000,1.5341e-11,
-5000000,1.592e-11,
-5100000,1.4706e-11,
-5200000,1.4602e-11,
-5300000,1.4574e-11,
-5400000,1.4401e-11,
-5500000,1.5804e-11,
-5600000,1.5116e-11,
-5700000,1.4627e-11,
-5800000,1.3819e-11,
-5900000,1.3304e-11,
-6000000,1.2921e-11,
-5950000,1.3333e-11,
-5850000,1.371e-11,
-5750000,1.4166e-11,
-5650000,1.5432e-11,
-5550000,1.5373e-11,
-5450000,1.5798e-11,
-5350000,1.4272e-11,
-5250000,1.4198e-11,
-5150000,1.446e-11,
-5050000,1.5199e-11,
-4950000,1.5573e-11,
-4850000,1.6065e-11,
-4750000,1.581e-11,
-4650000,1.6334e-11,
-4550000,1.6778e-11,
-4450000,1.7572e-11,
-4350000,1.824e-11,
-4250000,1.8329e-11,
-4150000,1.9083e-11,
-4050000,1.9285e-11,
-3950000,1.9456e-11,
-3850000,2.0072e-11,
-3750000,2.024e-11,
-3650000,2.0475e-11,
-3550000,2.1073e-11,
-3450000,2.1507e-11,
-3350000,2.2397e-11,
-3250000,2.3267e-11,
-3150000,2.3189e-11,
-3050000,2.3808e-11,
-2950000,2.4036e-11,
-2850000,2.4635e-11,
-2750000,2.559e-11,
-2650000,2.6749e-11,
-2550000,2.8892e-11,
-2450000,3.1572e-11,
-2350000,3.3339e-11,
-2250000,3.3497e-11,
-2150000,3.2592e-11,
-2050000,3.1198e-11,
-1950000,3.0248e-11,
-1850000,2.9654e-11,
-1750000,2.9953e-11,
-1650000,3.0136e-11,
-1550000,3.069e-11,
-1450000,3.1878e-11,
-1350000,3.2235e-11,
-1250000,3.2767e-11,
-1150000,3.4537e-11,
-1050000,3.8231e-11,
-950000,4.442e-11,
-850000,5.2396e-11,
-750000,5.7499e-11,
-650000,5.6558e-11,
-550000,4.8312e-11,
-450000,3.9523e-11,
-350000,3.4172e-11,
-250000,3.1228e-11,
-150000,2.9231e-11,
-50000,2.8828e-11,
