General parameters:
Start time: 2023             11              9             21             59      17.806574
Finish time: 2023             11              9             22             24      11.301932
Dwell time (ms): 3750.000000
Source chamber pressure: Error-S
Differential chamber pressure: 7.96e-07
Sample chamber pressure: 1.82e-08
Example position (nm): -4679000.000000,-700000.000000,-750000.000000
Rotation angle (udeg): 90000065.000000
==========
Instrument status: 
0:Data Directory:/icon/data/2023_11_defect2_MoS2_5um_hbn_sub/
1:Sample:MoS2
2:Comments:no
3:PinholePlate:#C13
4:z_Zero:4200
5:Operator:djw77/nav31/kw570
==========
zscan inputs: 
z_sep:50000
z_range:0 -6000000
data_path:/icon/data/2023_11_defect2_MoS2_5um_hbn_sub/
example_pos:-4679000  -700000  -750000
N_dwell:250
sampling_period:15
make_plots:1
m1:0.98976
m2:-0.0073571
example_pos_norm_1:-4704000  -700000  -750000
example_pos_norm_2:-4656000  -697000  -750000
==========
Detector params:
Sampling period (ms): 15.000000
N dwell: 250.000000
Filament current (A): 1.540000
Filament emission (mA): 2.199060
Solenoid current (A): NaN
Solenoid shim current (A): NaN
Lens params:
0  685
1  300
2  125
3      -0.002
4       -0.01
5       0.012
6         0.8
7         2.1
8         2.8
9  3000
10  1400
11         0.85
12   0
==========
Data:
z(nm),I(A)
0,2.5941e-11,
-100000,2.5176e-11,
-200000,2.5425e-11,
-300000,2.6506e-11,
-400000,2.9074e-11,
-500000,3.3858e-11,
-600000,4.1376e-11,
-700000,4.6023e-11,
-800000,4.4648e-11,
-900000,3.9446e-11,
-1000000,3.4158e-11,
-1100000,3.0383e-11,
-1200000,2.7677e-11,
-1300000,2.6668e-11,
-1400000,2.6208e-11,
-1500000,2.6122e-11,
-1600000,2.6149e-11,
-1700000,2.549e-11,
-1800000,2.4722e-11,
-1900000,2.395e-11,
-2000000,2.3644e-11,
-2100000,2.4225e-11,
-2200000,2.4471e-11,
-2300000,2.4386e-11,
-2400000,2.3375e-11,
-2500000,2.2832e-11,
-2600000,2.2442e-11,
-2700000,2.2049e-11,
-2800000,2.2084e-11,
-2900000,2.2246e-11,
-3000000,2.2248e-11,
-3100000,2.305e-11,
-3200000,2.3236e-11,
-3300000,2.2122e-11,
-3400000,2.153e-11,
-3500000,2.025e-11,
-3600000,1.8549e-11,
-3700000,1.8049e-11,
-3800000,1.6791e-11,
-3900000,1.5869e-11,
-4000000,1.5038e-11,
-4100000,1.5406e-11,
-4200000,1.459e-11,
-4300000,1.4522e-11,
-4400000,1.4057e-11,
-4500000,1.4257e-11,
-4600000,1.3598e-11,
-4700000,1.3418e-11,
-4800000,1.3342e-11,
-4900000,1.2851e-11,
-5000000,1.2528e-11,
-5100000,1.2332e-11,
-5200000,1.2027e-11,
-5300000,1.1741e-11,
-5400000,1.2104e-11,
-5500000,1.2597e-11,
-5600000,1.2369e-11,
-5700000,1.2303e-11,
-5800000,1.1306e-11,
-5900000,1.097e-11,
-6000000,1.085e-11,
-5950000,1.1108e-11,
-5850000,1.1396e-11,
-5750000,1.1603e-11,
-5650000,1.2139e-11,
-5550000,1.2438e-11,
-5450000,1.3164e-11,
-5350000,1.2387e-11,
-5250000,1.2148e-11,
-5150000,1.1897e-11,
-5050000,1.234e-11,
-4950000,1.2662e-11,
-4850000,1.3424e-11,
-4750000,1.372e-11,
-4650000,1.3604e-11,
-4550000,1.3822e-11,
-4450000,1.4453e-11,
-4350000,1.3886e-11,
-4250000,1.4467e-11,
-4150000,1.5067e-11,
-4050000,1.5304e-11,
-3950000,1.5756e-11,
-3850000,1.6999e-11,
-3750000,1.7422e-11,
-3650000,1.8212e-11,
-3550000,1.97e-11,
-3450000,2.1278e-11,
-3350000,2.2635e-11,
-3250000,2.3657e-11,
-3150000,2.3523e-11,
-3050000,2.3203e-11,
-2950000,2.2298e-11,
-2850000,2.187e-11,
-2750000,2.2482e-11,
-2650000,2.2578e-11,
-2550000,2.3006e-11,
-2450000,2.3512e-11,
-2350000,2.4251e-11,
-2250000,2.3849e-11,
-2150000,2.4438e-11,
-2050000,2.4337e-11,
-1950000,2.3979e-11,
-1850000,2.464e-11,
-1750000,2.5098e-11,
-1650000,2.5924e-11,
-1550000,2.614e-11,
-1450000,2.6502e-11,
-1350000,2.6104e-11,
-1250000,2.7221e-11,
-1150000,2.8834e-11,
-1050000,3.2069e-11,
-950000,3.7123e-11,
-850000,4.3348e-11,
-750000,4.6079e-11,
-650000,4.4999e-11,
-550000,3.8694e-11,
-450000,3.1089e-11,
-350000,2.6684e-11,
-250000,2.5767e-11,
-150000,2.534e-11,
-50000,2.5906e-11,
