General parameters:
Start time: 2023             11             20             13             43      21.512193
Finish time: 2023             11             20             14              8       15.10969
Dwell time (ms): 3750.000000
Source chamber pressure: Error-S
Differential chamber pressure: 8.10e-07
Sample chamber pressure: 1.65e-08
Example position (nm): -4608000.000000,-1058000.000000,-750000.000000
Rotation angle (udeg): 74999920.000000
==========
Instrument status: 
0:Data Directory:/icon/data/2023_11_defect2_MoS2_5um_hbn_sub/
1:Sample:MoS2
2:Comments:no
3:PinholePlate:#C13
4:z_Zero:4200
5:Operator:djw77/nav31/kw570
==========
zscan inputs: 
z_sep:50000
z_range:0 -6000000
data_path:/icon/data/2023_11_defect2_MoS2_5um_hbn_sub/
example_pos:-4608000 -1058000  -750000
N_dwell:250
sampling_period:15
make_plots:1
m1:0.98976
m2:-0.0073571
example_pos_norm_1:-4630000 -1063000  -750000
example_pos_norm_2:-4620000 -1078000  -750000
==========
Detector params:
Sampling period (ms): 15.000000
N dwell: 250.000000
Filament current (A): 1.540000
Filament emission (mA): 2.500020
Solenoid current (A): NaN
Solenoid shim current (A): NaN
Lens params:
0  685
1  300
2  125
3      -0.002
4       -0.01
5       0.012
6         0.8
7         2.1
8         2.8
9  3000
10  1400
11         0.85
12   0
==========
Data:
z(nm),I(A)
0,1.4192e-10,
-100000,1.4905e-10,
-200000,1.376e-10,
-300000,1.4287e-10,
-400000,1.5431e-10,
-500000,1.8072e-10,
-600000,2.2473e-10,
-700000,2.5378e-10,
-800000,2.5013e-10,
-900000,2.3162e-10,
-1000000,1.9557e-10,
-1100000,1.6963e-10,
-1200000,1.5502e-10,
-1300000,1.5419e-10,
-1400000,1.6091e-10,
-1500000,1.7594e-10,
-1600000,1.8626e-10,
-1700000,1.8323e-10,
-1800000,1.7299e-10,
-1900000,1.537e-10,
-2000000,1.402e-10,
-2100000,1.349e-10,
-2200000,1.3999e-10,
-2300000,1.5363e-10,
-2400000,1.7471e-10,
-2500000,1.9531e-10,
-2600000,1.9863e-10,
-2700000,1.9252e-10,
-2800000,1.7866e-10,
-2900000,1.5897e-10,
-3000000,1.3657e-10,
-3100000,1.2245e-10,
-3200000,1.1763e-10,
-3300000,1.1196e-10,
-3400000,1.1307e-10,
-3500000,1.1863e-10,
-3600000,1.2324e-10,
-3700000,1.2156e-10,
-3800000,1.1417e-10,
-3900000,1.0809e-10,
-4000000,9.4737e-11,
-4100000,9.3859e-11,
-4200000,9.009e-11,
-4300000,8.2841e-11,
-4400000,7.7558e-11,
-4500000,7.63e-11,
-4600000,7.6153e-11,
-4700000,7.386e-11,
-4800000,7.2878e-11,
-4900000,7.18e-11,
-5000000,7.0706e-11,
-5100000,7.0298e-11,
-5200000,6.7591e-11,
-5300000,6.7043e-11,
-5400000,6.6542e-11,
-5500000,6.7205e-11,
-5600000,6.7871e-11,
-5700000,6.2017e-11,
-5800000,6.3423e-11,
-5900000,6.2738e-11,
-6000000,6.1767e-11,
-5950000,6.3176e-11,
-5850000,6.2422e-11,
-5750000,6.2563e-11,
-5650000,6.4364e-11,
-5550000,6.8564e-11,
-5450000,6.5481e-11,
-5350000,6.6876e-11,
-5250000,6.7668e-11,
-5150000,6.8338e-11,
-5050000,6.9202e-11,
-4950000,7.0162e-11,
-4850000,7.042e-11,
-4750000,7.201e-11,
-4650000,7.3812e-11,
-4550000,7.5792e-11,
-4450000,7.6841e-11,
-4350000,7.9446e-11,
-4250000,8.8316e-11,
-4150000,9.2972e-11,
-4050000,9.294e-11,
-3950000,1.0206e-10,
-3850000,1.1122e-10,
-3750000,1.2257e-10,
-3650000,1.2407e-10,
-3550000,1.2336e-10,
-3450000,1.1766e-10,
-3350000,1.126e-10,
-3250000,1.1482e-10,
-3150000,1.2067e-10,
-3050000,1.2986e-10,
-2950000,1.4934e-10,
-2850000,1.7395e-10,
-2750000,1.9279e-10,
-2650000,2.0364e-10,
-2550000,2.0217e-10,
-2450000,1.9027e-10,
-2350000,1.6506e-10,
-2250000,1.4643e-10,
-2150000,1.374e-10,
-2050000,1.3633e-10,
-1950000,1.438e-10,
-1850000,1.6263e-10,
-1750000,1.7962e-10,
-1650000,1.8606e-10,
-1550000,1.8058e-10,
-1450000,1.6591e-10,
-1350000,1.5168e-10,
-1250000,1.5033e-10,
-1150000,1.5678e-10,
-1050000,1.7665e-10,
-950000,2.0804e-10,
-850000,2.4246e-10,
-750000,2.5388e-10,
-650000,2.3964e-10,
-550000,1.9999e-10,
-450000,1.6395e-10,
-350000,1.4409e-10,
-250000,1.3721e-10,
-150000,1.3776e-10,
-50000,1.3821e-10,
