General parameters:
Start time: 2023             11              9             17             47       25.62755
Finish time: 2023             11              9             18             12      19.011574
Dwell time (ms): 3750.000000
Source chamber pressure: Error-S
Differential chamber pressure: 7.96e-07
Sample chamber pressure: 1.82e-08
Example position (nm): -4676000.000000,-580000.000000,-750000.000000
Rotation angle (udeg): 95000185.000000
==========
Instrument status: 
0:Data Directory:/icon/data/2023_11_defect2_MoS2_5um_hbn_sub/
1:Sample:MoS2
2:Comments:no
3:PinholePlate:#C13
4:z_Zero:4200
5:Operator:djw77/nav31/kw570
==========
zscan inputs: 
z_sep:50000
z_range:0 -6000000
data_path:/icon/data/2023_11_defect2_MoS2_5um_hbn_sub/
example_pos:-4676000  -580000  -750000
N_dwell:250
sampling_period:15
make_plots:1
m1:0.98976
m2:-0.0073571
example_pos_norm_1:-4699000  -578000  -750000
example_pos_norm_2:-4649000  -598000  -750000
==========
Detector params:
Sampling period (ms): 15.000000
N dwell: 250.000000
Filament current (A): 1.540000
Filament emission (mA): 2.187774
Solenoid current (A): NaN
Solenoid shim current (A): NaN
Lens params:
0  685
1  300
2  125
3      -0.002
4       -0.01
5       0.012
6         0.8
7         2.1
8         2.8
9  3000
10  1400
11         0.85
12   0
==========
Data:
z(nm),I(A)
0,2.5739e-11,
-100000,2.5039e-11,
-200000,2.568e-11,
-300000,2.6504e-11,
-400000,2.9525e-11,
-500000,3.372e-11,
-600000,4.2118e-11,
-700000,4.5547e-11,
-800000,4.3719e-11,
-900000,3.8192e-11,
-1000000,3.3166e-11,
-1100000,2.9724e-11,
-1200000,2.8096e-11,
-1300000,2.6333e-11,
-1400000,2.5784e-11,
-1500000,2.5435e-11,
-1600000,2.4808e-11,
-1700000,2.4666e-11,
-1800000,2.4237e-11,
-1900000,2.4507e-11,
-2000000,2.5299e-11,
-2100000,2.6074e-11,
-2200000,2.6423e-11,
-2300000,2.6579e-11,
-2400000,2.6458e-11,
-2500000,2.4265e-11,
-2600000,2.3345e-11,
-2700000,2.2316e-11,
-2800000,2.233e-11,
-2900000,2.1272e-11,
-3000000,2.212e-11,
-3100000,2.3223e-11,
-3200000,2.3022e-11,
-3300000,2.2565e-11,
-3400000,2.2167e-11,
-3500000,2.0676e-11,
-3600000,1.9006e-11,
-3700000,1.7788e-11,
-3800000,1.7038e-11,
-3900000,1.6426e-11,
-4000000,1.5546e-11,
-4100000,1.5403e-11,
-4200000,1.5576e-11,
-4300000,1.4441e-11,
-4400000,1.4954e-11,
-4500000,1.4056e-11,
-4600000,1.3996e-11,
-4700000,1.3793e-11,
-4800000,1.3667e-11,
-4900000,1.3383e-11,
-5000000,1.2598e-11,
-5100000,1.2906e-11,
-5200000,1.2954e-11,
-5300000,1.289e-11,
-5400000,1.3155e-11,
-5500000,1.3512e-11,
-5600000,1.3636e-11,
-5700000,1.3354e-11,
-5800000,1.2872e-11,
-5900000,1.2145e-11,
-6000000,1.2077e-11,
-5950000,1.2214e-11,
-5850000,1.237e-11,
-5750000,1.3138e-11,
-5650000,1.3178e-11,
-5550000,1.3712e-11,
-5450000,1.3674e-11,
-5350000,1.3244e-11,
-5250000,1.3246e-11,
-5150000,1.2956e-11,
-5050000,1.307e-11,
-4950000,1.3487e-11,
-4850000,1.3174e-11,
-4750000,1.382e-11,
-4650000,1.4196e-11,
-4550000,1.3964e-11,
-4450000,1.4143e-11,
-4350000,1.4774e-11,
-4250000,1.4653e-11,
-4150000,1.5266e-11,
-4050000,1.5555e-11,
-3950000,1.635e-11,
-3850000,1.6941e-11,
-3750000,1.7918e-11,
-3650000,1.9425e-11,
-3550000,2.0038e-11,
-3450000,2.1851e-11,
-3350000,2.2613e-11,
-3250000,2.2825e-11,
-3150000,2.3496e-11,
-3050000,2.291e-11,
-2950000,2.2347e-11,
-2850000,2.2017e-11,
-2750000,2.1577e-11,
-2650000,2.2972e-11,
-2550000,2.4323e-11,
-2450000,2.5482e-11,
-2350000,2.6894e-11,
-2250000,2.6719e-11,
-2150000,2.6455e-11,
-2050000,2.579e-11,
-1950000,2.5164e-11,
-1850000,2.4112e-11,
-1750000,2.4605e-11,
-1650000,2.4898e-11,
-1550000,2.5279e-11,
-1450000,2.5633e-11,
-1350000,2.6569e-11,
-1250000,2.7053e-11,
-1150000,2.9086e-11,
-1050000,3.1513e-11,
-950000,3.5474e-11,
-850000,4.2216e-11,
-750000,4.5422e-11,
-650000,4.393e-11,
-550000,3.8299e-11,
-450000,3.1987e-11,
-350000,2.8808e-11,
-250000,2.5949e-11,
-150000,2.4792e-11,
-50000,2.4674e-11,
