General parameters:
Start time: 2023             11             23             13             43      24.639348
Finish time: 2023             11             23             14              8        17.3951
Dwell time (ms): 3750.000000
Source chamber pressure: Error-S
Differential chamber pressure: 8.15e-07
Sample chamber pressure: 1.66e-08
Example position (nm): -4411000.000000,227000.000000,-750000.000000
Rotation angle (udeg): 131250130.000000
==========
Instrument status: 
0:Data Directory:/icon/data/2023_11_defect2_MoS2_5um_hbn_sub/
1:Sample:MoS2
2:Comments:no
3:PinholePlate:#C13
4:z_Zero:4200
5:Operator:djw77/nav31/kw570
==========
zscan inputs: 
z_sep:50000
z_range:0 -6000000
data_path:/icon/data/2023_11_defect2_MoS2_5um_hbn_sub/
example_pos:-4411000   227000  -750000
N_dwell:250
sampling_period:15
make_plots:1
m1:0.98976
m2:-0.0073571
example_pos_norm_1:-4428000   242000  -750000
example_pos_norm_2:-4426000   222000  -750000
==========
Detector params:
Sampling period (ms): 15.000000
N dwell: 250.000000
Filament current (A): 1.540000
Filament emission (mA): 2.580048
Solenoid current (A): NaN
Solenoid shim current (A): NaN
Lens params:
0  685
1  300
2  125
3      -0.002
4       -0.01
5       0.012
6         0.8
7         2.1
8         2.8
9  3000
10  1400
11         0.85
12   0
==========
Data:
z(nm),I(A)
0,2.114e-10,
-100000,2.1886e-10,
-200000,2.2655e-10,
-300000,2.5195e-10,
-400000,2.9951e-10,
-500000,3.9064e-10,
-600000,4.2532e-10,
-700000,3.8632e-10,
-800000,2.9559e-10,
-900000,2.577e-10,
-1000000,2.4213e-10,
-1100000,2.4246e-10,
-1200000,2.5733e-10,
-1300000,2.954e-10,
-1400000,3.4874e-10,
-1500000,3.6579e-10,
-1600000,3.4856e-10,
-1700000,2.9928e-10,
-1800000,2.4555e-10,
-1900000,2.2409e-10,
-2000000,2.2711e-10,
-2100000,2.5113e-10,
-2200000,3.0482e-10,
-2300000,3.7294e-10,
-2400000,4.1171e-10,
-2500000,4.0409e-10,
-2600000,3.6376e-10,
-2700000,2.8914e-10,
-2800000,2.276e-10,
-2900000,1.9506e-10,
-3000000,1.8349e-10,
-3100000,1.8126e-10,
-3200000,1.8374e-10,
-3300000,1.9287e-10,
-3400000,2.0112e-10,
-3500000,2.0299e-10,
-3600000,2.0014e-10,
-3700000,1.9223e-10,
-3800000,1.7556e-10,
-3900000,1.5904e-10,
-4000000,1.467e-10,
-4100000,1.4093e-10,
-4200000,1.3595e-10,
-4300000,1.3177e-10,
-4400000,1.2863e-10,
-4500000,1.2607e-10,
-4600000,1.2395e-10,
-4700000,1.2173e-10,
-4800000,1.222e-10,
-4900000,1.2014e-10,
-5000000,1.1962e-10,
-5100000,1.1725e-10,
-5200000,1.1577e-10,
-5300000,1.1236e-10,
-5400000,1.117e-10,
-5500000,1.1451e-10,
-5600000,1.1619e-10,
-5700000,1.1292e-10,
-5800000,1.0824e-10,
-5900000,1.0449e-10,
-6000000,1.0222e-10,
-5950000,1.0222e-10,
-5850000,1.0393e-10,
-5750000,1.1e-10,
-5650000,1.1351e-10,
-5550000,1.159e-10,
-5450000,1.1578e-10,
-5350000,1.1268e-10,
-5250000,1.1214e-10,
-5150000,1.1379e-10,
-5050000,1.1576e-10,
-4950000,1.1809e-10,
-4850000,1.1991e-10,
-4750000,1.2212e-10,
-4650000,1.2237e-10,
-4550000,1.2503e-10,
-4450000,1.2874e-10,
-4350000,1.3102e-10,
-4250000,1.3358e-10,
-4150000,1.3776e-10,
-4050000,1.4328e-10,
-3950000,1.5158e-10,
-3850000,1.6683e-10,
-3750000,1.8619e-10,
-3650000,1.9867e-10,
-3550000,2.0412e-10,
-3450000,2.0241e-10,
-3350000,1.9665e-10,
-3250000,1.8899e-10,
-3150000,1.8332e-10,
-3050000,1.8127e-10,
-2950000,1.8849e-10,
-2850000,2.0947e-10,
-2750000,2.5762e-10,
-2650000,3.3322e-10,
-2550000,3.968e-10,
-2450000,4.1865e-10,
-2350000,4.0216e-10,
-2250000,3.4653e-10,
-2150000,2.803e-10,
-2050000,2.3915e-10,
-1950000,2.2387e-10,
-1850000,2.3378e-10,
-1750000,2.6652e-10,
-1650000,3.2962e-10,
-1550000,3.6481e-10,
-1450000,3.6419e-10,
-1350000,3.3087e-10,
-1250000,2.7663e-10,
-1150000,2.5082e-10,
-1050000,2.4502e-10,
-950000,2.5146e-10,
-850000,2.7208e-10,
-750000,3.3021e-10,
-650000,4.0546e-10,
-550000,4.1139e-10,
-450000,3.448e-10,
-350000,2.6959e-10,
-250000,2.434e-10,
-150000,2.2993e-10,
-50000,2.1889e-10,
