General parameters:
Start time: 2023             11             11              0             42      54.483352
Finish time: 2023             11             11              1              7      50.143037
Dwell time (ms): 3750.000000
Source chamber pressure: Error-S
Differential chamber pressure: 7.96e-07
Sample chamber pressure: 1.92e-08
Example position (nm): -4507000.000000,-1284000.000000,-750000.000000
Rotation angle (udeg): 64999995.000000
==========
Instrument status: 
0:Data Directory:/icon/data/2023_11_defect2_MoS2_5um_hbn_sub/
1:Sample:MoS2
2:Comments:no
3:PinholePlate:#C13
4:z_Zero:4200
5:Operator:djw77/nav31/kw570
==========
zscan inputs: 
z_sep:50000
z_range:0 -6000000
data_path:/icon/data/2023_11_defect2_MoS2_5um_hbn_sub/
example_pos:-4507000 -1284000  -750000
N_dwell:250
sampling_period:15
make_plots:1
m1:0.98976
m2:-0.0073571
example_pos_norm_1:-4529000 -1296000  -750000
example_pos_norm_2:-4482000 -1302000  -750000
==========
Detector params:
Sampling period (ms): 15.000000
N dwell: 250.000000
Filament current (A): 1.540000
Filament emission (mA): 2.200770
Solenoid current (A): NaN
Solenoid shim current (A): NaN
Lens params:
0  685
1  300
2  125
3      -0.002
4       -0.01
5       0.012
6         0.8
7         2.1
8         2.8
9  3000
10  1400
11         0.85
12   0
==========
Data:
z(nm),I(A)
0,2.6062e-11,
-100000,2.7154e-11,
-200000,2.7208e-11,
-300000,2.7093e-11,
-400000,2.9977e-11,
-500000,3.6114e-11,
-600000,4.5203e-11,
-700000,5.1786e-11,
-800000,5.2718e-11,
-900000,4.7479e-11,
-1000000,3.8738e-11,
-1100000,3.3535e-11,
-1200000,3.0123e-11,
-1300000,2.9448e-11,
-1400000,2.9634e-11,
-1500000,3.2126e-11,
-1600000,3.3858e-11,
-1700000,3.3684e-11,
-1800000,3.0808e-11,
-1900000,2.7934e-11,
-2000000,2.5988e-11,
-2100000,2.5797e-11,
-2200000,2.4913e-11,
-2300000,2.6604e-11,
-2400000,2.7348e-11,
-2500000,2.8185e-11,
-2600000,2.7543e-11,
-2700000,2.6911e-11,
-2800000,2.5378e-11,
-2900000,2.3974e-11,
-3000000,2.3192e-11,
-3100000,2.258e-11,
-3200000,2.1536e-11,
-3300000,2.0977e-11,
-3400000,2.0406e-11,
-3500000,2.0086e-11,
-3600000,1.9498e-11,
-3700000,1.8902e-11,
-3800000,1.8075e-11,
-3900000,1.7787e-11,
-4000000,1.6117e-11,
-4100000,1.6884e-11,
-4200000,1.6214e-11,
-4300000,1.5935e-11,
-4400000,1.615e-11,
-4500000,1.552e-11,
-4600000,1.5486e-11,
-4700000,1.4765e-11,
-4800000,1.4647e-11,
-4900000,1.3873e-11,
-5000000,1.3882e-11,
-5100000,1.3233e-11,
-5200000,1.3342e-11,
-5300000,1.3186e-11,
-5400000,1.2847e-11,
-5500000,1.1154e-11,
-5600000,1.0927e-11,
-5700000,1.1377e-11,
-5800000,1.2111e-11,
-5900000,1.2137e-11,
-6000000,1.1967e-11,
-5950000,1.1597e-11,
-5850000,1.1827e-11,
-5750000,1.2052e-11,
-5650000,1.0997e-11,
-5550000,1.0893e-11,
-5450000,1.1917e-11,
-5350000,1.292e-11,
-5250000,1.3499e-11,
-5150000,1.3204e-11,
-5050000,1.326e-11,
-4950000,1.3932e-11,
-4850000,1.3994e-11,
-4750000,1.4556e-11,
-4650000,1.4786e-11,
-4550000,1.4993e-11,
-4450000,1.5474e-11,
-4350000,1.598e-11,
-4250000,1.6251e-11,
-4150000,1.6669e-11,
-4050000,1.6592e-11,
-3950000,1.7139e-11,
-3850000,1.8222e-11,
-3750000,1.8825e-11,
-3650000,1.93e-11,
-3550000,1.9532e-11,
-3450000,2.0583e-11,
-3350000,2.1416e-11,
-3250000,2.1615e-11,
-3150000,2.2598e-11,
-3050000,2.2459e-11,
-2950000,2.3454e-11,
-2850000,2.5068e-11,
-2750000,2.644e-11,
-2650000,2.7324e-11,
-2550000,2.7923e-11,
-2450000,2.7881e-11,
-2350000,2.6679e-11,
-2250000,2.579e-11,
-2150000,2.4895e-11,
-2050000,2.553e-11,
-1950000,2.6881e-11,
-1850000,2.9226e-11,
-1750000,3.2552e-11,
-1650000,3.4427e-11,
-1550000,3.3006e-11,
-1450000,3.1719e-11,
-1350000,2.8889e-11,
-1250000,2.9406e-11,
-1150000,3.1491e-11,
-1050000,3.6006e-11,
-950000,4.4268e-11,
-850000,5.0403e-11,
-750000,5.341e-11,
-650000,4.91e-11,
-550000,4.0038e-11,
-450000,3.2275e-11,
-350000,2.8423e-11,
-250000,2.6743e-11,
-150000,2.7196e-11,
-50000,2.7664e-11,
