General parameters:
Start time: 2023             11             16             15             24      59.486843
Finish time: 2023             11             16             15             49      50.772108
Dwell time (ms): 3750.000000
Source chamber pressure: Error-S
Differential chamber pressure: 8.02e-07
Sample chamber pressure: 1.64e-08
Example position (nm): -4386000.000000,252000.000000,-750000.000000
Rotation angle (udeg): 132499875.000000
==========
Instrument status: 
0:Data Directory:/icon/data/2023_11_defect2_MoS2_5um_hbn_sub/
1:Sample:MoS2
2:Comments:no
3:PinholePlate:#C13
4:z_Zero:4200
5:Operator:djw77/nav31/kw570
==========
zscan inputs: 
z_sep:50000
z_range:0 -6000000
data_path:/icon/data/2023_11_defect2_MoS2_5um_hbn_sub/
example_pos:-4386000   252000  -750000
N_dwell:250
sampling_period:15
make_plots:1
m1:0.98976
m2:-0.0073571
example_pos_norm_1:-4403000   267000  -750000
example_pos_norm_2:-4408000   252000  -750000
==========
Detector params:
Sampling period (ms): 15.000000
N dwell: 250.000000
Filament current (A): 1.540000
Filament emission (mA): 2.405970
Solenoid current (A): NaN
Solenoid shim current (A): NaN
Lens params:
0  685
1  300
2  125
3      -0.002
4       -0.01
5       0.012
6         0.8
7         2.1
8         2.8
9  3000
10  1400
11         0.85
12   0
==========
Data:
z(nm),I(A)
0,1.0312e-10,
-100000,1.0259e-10,
-200000,1.0754e-10,
-300000,1.1535e-10,
-400000,1.3395e-10,
-500000,1.6381e-10,
-600000,1.8326e-10,
-700000,1.7371e-10,
-800000,1.4478e-10,
-900000,1.2705e-10,
-1000000,1.2064e-10,
-1100000,1.1934e-10,
-1200000,1.2219e-10,
-1300000,1.3527e-10,
-1400000,1.5143e-10,
-1500000,1.5821e-10,
-1600000,1.5379e-10,
-1700000,1.3917e-10,
-1800000,1.205e-10,
-1900000,1.1136e-10,
-2000000,1.0972e-10,
-2100000,1.1635e-10,
-2200000,1.3225e-10,
-2300000,1.5237e-10,
-2400000,1.6909e-10,
-2500000,1.6829e-10,
-2600000,1.5496e-10,
-2700000,1.3104e-10,
-2800000,1.1042e-10,
-2900000,9.7035e-11,
-3000000,8.9606e-11,
-3100000,8.755e-11,
-3200000,8.6412e-11,
-3300000,8.7012e-11,
-3400000,8.969e-11,
-3500000,8.9414e-11,
-3600000,8.8515e-11,
-3700000,8.7294e-11,
-3800000,8.1136e-11,
-3900000,7.4472e-11,
-4000000,7.1457e-11,
-4100000,6.8351e-11,
-4200000,6.5572e-11,
-4300000,6.4855e-11,
-4400000,6.2793e-11,
-4500000,6.1441e-11,
-4600000,6.0607e-11,
-4700000,5.9614e-11,
-4800000,5.86e-11,
-4900000,5.7346e-11,
-5000000,5.688e-11,
-5100000,5.6673e-11,
-5200000,5.4274e-11,
-5300000,5.504e-11,
-5400000,5.5224e-11,
-5500000,5.5719e-11,
-5600000,5.5969e-11,
-5700000,5.4545e-11,
-5800000,5.316e-11,
-5900000,5.1648e-11,
-6000000,5.099e-11,
-5950000,5.182e-11,
-5850000,5.2258e-11,
-5750000,5.3649e-11,
-5650000,5.526e-11,
-5550000,5.5695e-11,
-5450000,5.6056e-11,
-5350000,5.523e-11,
-5250000,5.4966e-11,
-5150000,5.6254e-11,
-5050000,5.6855e-11,
-4950000,5.7407e-11,
-4850000,5.8339e-11,
-4750000,5.9814e-11,
-4650000,6.1428e-11,
-4550000,6.1546e-11,
-4450000,6.2242e-11,
-4350000,6.4163e-11,
-4250000,6.3878e-11,
-4150000,6.582e-11,
-4050000,6.917e-11,
-3950000,7.1846e-11,
-3850000,7.7512e-11,
-3750000,8.4185e-11,
-3650000,8.7801e-11,
-3550000,8.7849e-11,
-3450000,8.9253e-11,
-3350000,8.8246e-11,
-3250000,8.7267e-11,
-3150000,8.6686e-11,
-3050000,8.8643e-11,
-2950000,9.3141e-11,
-2850000,1.0238e-10,
-2750000,1.2113e-10,
-2650000,1.4656e-10,
-2550000,1.6449e-10,
-2450000,1.7238e-10,
-2350000,1.6436e-10,
-2250000,1.4352e-10,
-2150000,1.2383e-10,
-2050000,1.1239e-10,
-1950000,1.0965e-10,
-1850000,1.1523e-10,
-1750000,1.3043e-10,
-1650000,1.4821e-10,
-1550000,1.592e-10,
-1450000,1.57e-10,
-1350000,1.4493e-10,
-1250000,1.3018e-10,
-1150000,1.2067e-10,
-1050000,1.1945e-10,
-950000,1.2388e-10,
-850000,1.3562e-10,
-750000,1.5798e-10,
-650000,1.8244e-10,
-550000,1.7739e-10,
-450000,1.477e-10,
-350000,1.2368e-10,
-250000,1.0956e-10,
-150000,1.0497e-10,
-50000,1.0354e-10,
