General parameters:
Start time: 2023             11             13             22             59      47.047585
Finish time: 2023             11             13             23             24      42.902513
Dwell time (ms): 3750.000000
Source chamber pressure: Error-S
Differential chamber pressure: 8.00e-07
Sample chamber pressure: 1.74e-08
Example position (nm): -4575000.000000,-110000.000000,-750000.000000
Rotation angle (udeg): 115000145.000000
==========
Instrument status: 
0:Data Directory:/icon/data/2023_11_defect2_MoS2_5um_hbn_sub/
1:Sample:MoS2
2:Comments:no
3:PinholePlate:#C13
4:z_Zero:4200
5:Operator:djw77/nav31/kw570
==========
zscan inputs: 
z_sep:50000
z_range:0 -6000000
data_path:/icon/data/2023_11_defect2_MoS2_5um_hbn_sub/
example_pos:-4575000  -110000  -750000
N_dwell:250
sampling_period:15
make_plots:1
m1:0.98976
m2:-0.0073571
example_pos_norm_1:-4598000  -100000  -750000
example_pos_norm_2:-4605000  -117000  -750000
==========
Detector params:
Sampling period (ms): 15.000000
N dwell: 250.000000
Filament current (A): 1.540000
Filament emission (mA): 2.286954
Solenoid current (A): NaN
Solenoid shim current (A): NaN
Lens params:
0  685
1  300
2  125
3      -0.002
4       -0.01
5       0.012
6         0.8
7         2.1
8         2.8
9  3000
10  1400
11         0.85
12   0
==========
Data:
z(nm),I(A)
0,3.3701e-11,
-100000,3.3597e-11,
-200000,3.5598e-11,
-300000,3.8385e-11,
-400000,4.2927e-11,
-500000,5.0637e-11,
-600000,6.03e-11,
-700000,6.4406e-11,
-800000,5.8713e-11,
-900000,5.0576e-11,
-1000000,4.5134e-11,
-1100000,4.2516e-11,
-1200000,4.1867e-11,
-1300000,4.1736e-11,
-1400000,4.3338e-11,
-1500000,4.4168e-11,
-1600000,4.2159e-11,
-1700000,3.9366e-11,
-1800000,3.7279e-11,
-1900000,3.6364e-11,
-2000000,3.4821e-11,
-2100000,3.4938e-11,
-2200000,3.4424e-11,
-2300000,3.4205e-11,
-2400000,3.3371e-11,
-2500000,3.328e-11,
-2600000,3.1664e-11,
-2700000,3.0656e-11,
-2800000,3.0377e-11,
-2900000,3.047e-11,
-3000000,3.1209e-11,
-3100000,3.0847e-11,
-3200000,3.0808e-11,
-3300000,3.0256e-11,
-3400000,2.8916e-11,
-3500000,2.7339e-11,
-3600000,2.5899e-11,
-3700000,2.4682e-11,
-3800000,2.3479e-11,
-3900000,2.2768e-11,
-4000000,2.2906e-11,
-4100000,2.148e-11,
-4200000,2.1467e-11,
-4300000,2.1564e-11,
-4400000,2.1328e-11,
-4500000,2.0116e-11,
-4600000,1.9742e-11,
-4700000,1.974e-11,
-4800000,1.9368e-11,
-4900000,1.8869e-11,
-5000000,1.8174e-11,
-5100000,1.8135e-11,
-5200000,1.7757e-11,
-5300000,1.7688e-11,
-5400000,1.8608e-11,
-5500000,1.8331e-11,
-5600000,1.8355e-11,
-5700000,1.7612e-11,
-5800000,1.7726e-11,
-5900000,1.6478e-11,
-6000000,1.6212e-11,
-5950000,1.6504e-11,
-5850000,1.7065e-11,
-5750000,1.7954e-11,
-5650000,1.8258e-11,
-5550000,1.8401e-11,
-5450000,1.8611e-11,
-5350000,1.8285e-11,
-5250000,1.8123e-11,
-5150000,1.8106e-11,
-5050000,1.8022e-11,
-4950000,1.858e-11,
-4850000,1.8931e-11,
-4750000,1.9473e-11,
-4650000,1.9238e-11,
-4550000,1.964e-11,
-4450000,2.0241e-11,
-4350000,2.0846e-11,
-4250000,2.1601e-11,
-4150000,2.1854e-11,
-4050000,2.2501e-11,
-3950000,2.2756e-11,
-3850000,2.2942e-11,
-3750000,2.4156e-11,
-3650000,2.5237e-11,
-3550000,2.667e-11,
-3450000,2.8248e-11,
-3350000,2.9379e-11,
-3250000,2.9726e-11,
-3150000,3.0971e-11,
-3050000,3.0868e-11,
-2950000,3.0852e-11,
-2850000,3.0541e-11,
-2750000,3.0169e-11,
-2650000,3.137e-11,
-2550000,3.2422e-11,
-2450000,3.307e-11,
-2350000,3.4084e-11,
-2250000,3.457e-11,
-2150000,3.4155e-11,
-2050000,3.5093e-11,
-1950000,3.5338e-11,
-1850000,3.6527e-11,
-1750000,3.8667e-11,
-1650000,4.0647e-11,
-1550000,4.3942e-11,
-1450000,4.3914e-11,
-1350000,4.2492e-11,
-1250000,4.152e-11,
-1150000,4.1603e-11,
-1050000,4.3833e-11,
-950000,4.7186e-11,
-850000,5.3794e-11,
-750000,6.2062e-11,
-650000,6.3478e-11,
-550000,5.6803e-11,
-450000,4.6685e-11,
-350000,3.9974e-11,
-250000,3.6906e-11,
-150000,3.4639e-11,
-50000,3.395e-11,
