General parameters:
Start time: 2023             11             10             18             14      57.579284
Finish time: 2023             11             10             18             39      55.101748
Dwell time (ms): 3750.000000
Source chamber pressure: Error-S
Differential chamber pressure: 7.94e-07
Sample chamber pressure: 1.92e-08
Example position (nm): -4560000.000000,-1172000.000000,-750000.000000
Rotation angle (udeg): 69999990.000000
==========
Instrument status: 
0:Data Directory:/icon/data/2023_11_defect2_MoS2_5um_hbn_sub/
1:Sample:MoS2
2:Comments:no
3:PinholePlate:#C13
4:z_Zero:4200
5:Operator:djw77/nav31/kw570
==========
zscan inputs: 
z_sep:50000
z_range:0 -6000000
data_path:/icon/data/2023_11_defect2_MoS2_5um_hbn_sub/
example_pos:-4560000 -1172000  -750000
N_dwell:250
sampling_period:15
make_plots:1
m1:0.98976
m2:-0.0073571
example_pos_norm_1:-4583000 -1180000  -750000
example_pos_norm_2:-4556000 -1195000  -750000
==========
Detector params:
Sampling period (ms): 15.000000
N dwell: 250.000000
Filament current (A): 1.540000
Filament emission (mA): 2.205900
Solenoid current (A): NaN
Solenoid shim current (A): NaN
Lens params:
0  685
1  300
2  125
3      -0.002
4       -0.01
5       0.012
6         0.8
7         2.1
8         2.8
9  3000
10  1400
11         0.85
12   0
==========
Data:
z(nm),I(A)
0,3.1915e-11,
-100000,3.5511e-11,
-200000,3.171e-11,
-300000,3.2785e-11,
-400000,3.138e-11,
-500000,3.6264e-11,
-600000,4.5065e-11,
-700000,5.1508e-11,
-800000,5.2252e-11,
-900000,4.6912e-11,
-1000000,3.9574e-11,
-1100000,3.4269e-11,
-1200000,3.0891e-11,
-1300000,3.0251e-11,
-1400000,3.2054e-11,
-1500000,3.525e-11,
-1600000,3.6628e-11,
-1700000,3.613e-11,
-1800000,3.3625e-11,
-1900000,3.0612e-11,
-2000000,2.8091e-11,
-2100000,2.7199e-11,
-2200000,2.7461e-11,
-2300000,3.0163e-11,
-2400000,3.3154e-11,
-2500000,3.641e-11,
-2600000,3.7855e-11,
-2700000,3.7213e-11,
-2800000,3.3108e-11,
-2900000,2.9159e-11,
-3000000,2.5989e-11,
-3100000,2.4055e-11,
-3200000,2.2956e-11,
-3300000,2.1956e-11,
-3400000,2.1936e-11,
-3500000,2.2335e-11,
-3600000,2.1972e-11,
-3700000,2.1969e-11,
-3800000,2.1202e-11,
-3900000,1.9682e-11,
-4000000,1.8734e-11,
-4100000,1.7535e-11,
-4200000,1.7247e-11,
-4300000,1.637e-11,
-4400000,1.584e-11,
-4500000,1.5593e-11,
-4600000,1.53e-11,
-4700000,1.4638e-11,
-4800000,1.4399e-11,
-4900000,1.4375e-11,
-5000000,1.3895e-11,
-5100000,1.3918e-11,
-5200000,1.3527e-11,
-5300000,1.2952e-11,
-5400000,1.2812e-11,
-5500000,1.1919e-11,
-5600000,1.2531e-11,
-5700000,1.1429e-11,
-5800000,1.2574e-11,
-5900000,1.2194e-11,
-6000000,1.2371e-11,
-5950000,1.1684e-11,
-5850000,1.2165e-11,
-5750000,1.1978e-11,
-5650000,1.1562e-11,
-5550000,1.2284e-11,
-5450000,1.2594e-11,
-5350000,1.3188e-11,
-5250000,1.2776e-11,
-5150000,1.3046e-11,
-5050000,1.4023e-11,
-4950000,1.3762e-11,
-4850000,1.4226e-11,
-4750000,1.458e-11,
-4650000,1.4918e-11,
-4550000,1.5259e-11,
-4450000,1.5293e-11,
-4350000,1.6057e-11,
-4250000,1.6551e-11,
-4150000,1.7334e-11,
-4050000,1.8134e-11,
-3950000,1.9206e-11,
-3850000,2.0616e-11,
-3750000,2.1762e-11,
-3650000,2.2162e-11,
-3550000,2.2414e-11,
-3450000,2.2336e-11,
-3350000,2.1955e-11,
-3250000,2.262e-11,
-3150000,2.3132e-11,
-3050000,2.5284e-11,
-2950000,2.7973e-11,
-2850000,3.1568e-11,
-2750000,3.5331e-11,
-2650000,3.7827e-11,
-2550000,3.7719e-11,
-2450000,3.4971e-11,
-2350000,3.1799e-11,
-2250000,2.8741e-11,
-2150000,2.7234e-11,
-2050000,2.7394e-11,
-1950000,2.8024e-11,
-1850000,3.2834e-11,
-1750000,3.5256e-11,
-1650000,3.732e-11,
-1550000,3.5852e-11,
-1450000,3.3859e-11,
-1350000,3.0396e-11,
-1250000,3.0121e-11,
-1150000,3.2291e-11,
-1050000,3.6853e-11,
-950000,4.293e-11,
-850000,5.02e-11,
-750000,5.272e-11,
-650000,4.9365e-11,
-550000,4.0886e-11,
-450000,3.3195e-11,
-350000,2.9e-11,
-250000,2.8739e-11,
-150000,3.1689e-11,
-50000,3.2532e-11,
