General parameters:
Start time: 2023             11             13             16             26      52.808223
Finish time: 2023             11             13             16             51      48.714257
Dwell time (ms): 3750.000000
Source chamber pressure: Error-S
Differential chamber pressure: 7.95e-07
Sample chamber pressure: 1.84e-08
Example position (nm): -4612000.000000,-220000.000000,-750000.000000
Rotation angle (udeg): 110000145.000000
==========
Instrument status: 
0:Data Directory:/icon/data/2023_11_defect2_MoS2_5um_hbn_sub/
1:Sample:MoS2
2:Comments:no
3:PinholePlate:#C13
4:z_Zero:4200
5:Operator:djw77/nav31/kw570
==========
zscan inputs: 
z_sep:50000
z_range:0 -6000000
data_path:/icon/data/2023_11_defect2_MoS2_5um_hbn_sub/
example_pos:-4612000  -220000  -750000
N_dwell:250
sampling_period:15
make_plots:1
m1:0.98976
m2:-0.0073571
example_pos_norm_1:-4638000  -215000  -750000
example_pos_norm_2:-4640000  -233000  -750000
==========
Detector params:
Sampling period (ms): 15.000000
N dwell: 250.000000
Filament current (A): 1.540000
Filament emission (mA): 2.246598
Solenoid current (A): NaN
Solenoid shim current (A): NaN
Lens params:
0  685
1  300
2  125
3      -0.002
4       -0.01
5       0.012
6         0.8
7         2.1
8         2.8
9  3000
10  1400
11         0.85
12   0
==========
Data:
z(nm),I(A)
0,2.7341e-11,
-100000,2.8397e-11,
-200000,2.952e-11,
-300000,3.2421e-11,
-400000,3.5752e-11,
-500000,4.3104e-11,
-600000,5.2343e-11,
-700000,5.673e-11,
-800000,5.32e-11,
-900000,4.4829e-11,
-1000000,3.8939e-11,
-1100000,3.5616e-11,
-1200000,3.4004e-11,
-1300000,3.3274e-11,
-1400000,3.3668e-11,
-1500000,3.3602e-11,
-1600000,3.2465e-11,
-1700000,3.1103e-11,
-1800000,3.0372e-11,
-1900000,2.979e-11,
-2000000,2.8926e-11,
-2100000,2.9463e-11,
-2200000,2.9739e-11,
-2300000,2.9978e-11,
-2400000,2.8924e-11,
-2500000,2.7561e-11,
-2600000,2.661e-11,
-2700000,2.52e-11,
-2800000,2.4912e-11,
-2900000,2.4755e-11,
-3000000,2.4948e-11,
-3100000,2.4732e-11,
-3200000,2.5233e-11,
-3300000,2.454e-11,
-3400000,2.2725e-11,
-3500000,2.2182e-11,
-3600000,2.1488e-11,
-3700000,2.0567e-11,
-3800000,1.981e-11,
-3900000,1.9266e-11,
-4000000,1.8399e-11,
-4100000,1.8148e-11,
-4200000,1.7663e-11,
-4300000,1.8008e-11,
-4400000,1.7016e-11,
-4500000,1.7328e-11,
-4600000,1.6816e-11,
-4700000,1.6053e-11,
-4800000,1.5687e-11,
-4900000,1.5124e-11,
-5000000,1.5204e-11,
-5100000,1.4552e-11,
-5200000,1.4055e-11,
-5300000,1.4106e-11,
-5400000,1.4152e-11,
-5500000,1.5054e-11,
-5600000,1.5466e-11,
-5700000,1.4896e-11,
-5800000,1.3709e-11,
-5900000,1.3102e-11,
-6000000,1.266e-11,
-5950000,1.2944e-11,
-5850000,1.2733e-11,
-5750000,1.4025e-11,
-5650000,1.4967e-11,
-5550000,1.5085e-11,
-5450000,1.5266e-11,
-5350000,1.3594e-11,
-5250000,1.3912e-11,
-5150000,1.3892e-11,
-5050000,1.5098e-11,
-4950000,1.5189e-11,
-4850000,1.5726e-11,
-4750000,1.5537e-11,
-4650000,1.5748e-11,
-4550000,1.6786e-11,
-4450000,1.661e-11,
-4350000,1.734e-11,
-4250000,1.7827e-11,
-4150000,1.7824e-11,
-4050000,1.8319e-11,
-3950000,1.8498e-11,
-3850000,1.9174e-11,
-3750000,2.0043e-11,
-3650000,2.0567e-11,
-3550000,2.2103e-11,
-3450000,2.3046e-11,
-3350000,2.3554e-11,
-3250000,2.4822e-11,
-3150000,2.5113e-11,
-3050000,2.5284e-11,
-2950000,2.4895e-11,
-2850000,2.4682e-11,
-2750000,2.4416e-11,
-2650000,2.5958e-11,
-2550000,2.6826e-11,
-2450000,2.7848e-11,
-2350000,2.9325e-11,
-2250000,2.9923e-11,
-2150000,3.0676e-11,
-2050000,2.9274e-11,
-1950000,2.9128e-11,
-1850000,2.9316e-11,
-1750000,3.0536e-11,
-1650000,3.2409e-11,
-1550000,3.3225e-11,
-1450000,3.3596e-11,
-1350000,3.3287e-11,
-1250000,3.4895e-11,
-1150000,3.4546e-11,
-1050000,3.8004e-11,
-950000,4.2405e-11,
-850000,4.8975e-11,
-750000,5.5518e-11,
-650000,5.6078e-11,
-550000,4.9066e-11,
-450000,4.0168e-11,
-350000,3.3715e-11,
-250000,3.0534e-11,
-150000,2.8733e-11,
-50000,2.9e-11,
