General parameters:
Start time: 2023             11             14             11              5      54.992417
Finish time: 2023             11             14             11             30      53.413158
Dwell time (ms): 3750.000000
Source chamber pressure: Error-S
Differential chamber pressure: 8.01e-07
Sample chamber pressure: 1.71e-08
Example position (nm): -4529000.000000,5000.000000,-750000.000000
Rotation angle (udeg): 120000145.000000
==========
Instrument status: 
0:Data Directory:/icon/data/2023_11_defect2_MoS2_5um_hbn_sub/
1:Sample:MoS2
2:Comments:no
3:PinholePlate:#C13
4:z_Zero:4200
5:Operator:djw77/nav31/kw570
==========
zscan inputs: 
z_sep:50000
z_range:0 -6000000
data_path:/icon/data/2023_11_defect2_MoS2_5um_hbn_sub/
example_pos:-4529000     5000  -750000
N_dwell:250
sampling_period:15
make_plots:1
m1:0.98976
m2:-0.0073571
example_pos_norm_1:-4551000    13000  -750000
example_pos_norm_2:-4556000    45000  -750000
==========
Detector params:
Sampling period (ms): 15.000000
N dwell: 250.000000
Filament current (A): 1.540000
Filament emission (mA): 2.313288
Solenoid current (A): NaN
Solenoid shim current (A): NaN
Lens params:
0  685
1  300
2  125
3      -0.002
4       -0.01
5       0.012
6         0.8
7         2.1
8         2.8
9  3000
10  1400
11         0.85
12   0
==========
Data:
z(nm),I(A)
0,3.7308e-11,
-100000,3.8363e-11,
-200000,4.001e-11,
-300000,4.3691e-11,
-400000,4.9371e-11,
-500000,5.9632e-11,
-600000,6.9014e-11,
-700000,7.2233e-11,
-800000,6.623e-11,
-900000,5.6774e-11,
-1000000,5.1141e-11,
-1100000,4.7609e-11,
-1200000,4.746e-11,
-1300000,5.0228e-11,
-1400000,5.4362e-11,
-1500000,5.6484e-11,
-1600000,5.4828e-11,
-1700000,5.077e-11,
-1800000,4.5827e-11,
-1900000,4.1085e-11,
-2000000,3.9608e-11,
-2100000,3.9728e-11,
-2200000,4.0636e-11,
-2300000,4.1219e-11,
-2400000,4.1633e-11,
-2500000,4.1129e-11,
-2600000,3.9166e-11,
-2700000,3.6856e-11,
-2800000,3.5666e-11,
-2900000,3.4168e-11,
-3000000,3.3024e-11,
-3100000,3.1998e-11,
-3200000,3.1657e-11,
-3300000,3.0589e-11,
-3400000,2.9848e-11,
-3500000,2.891e-11,
-3600000,2.753e-11,
-3700000,2.6955e-11,
-3800000,2.5736e-11,
-3900000,2.464e-11,
-4000000,2.3956e-11,
-4100000,2.3699e-11,
-4200000,2.3368e-11,
-4300000,2.2862e-11,
-4400000,2.2332e-11,
-4500000,2.1606e-11,
-4600000,2.138e-11,
-4700000,2.1017e-11,
-4800000,2.1058e-11,
-4900000,2.0581e-11,
-5000000,2.0859e-11,
-5100000,1.9473e-11,
-5200000,1.9073e-11,
-5300000,1.8696e-11,
-5400000,1.9389e-11,
-5500000,2.0663e-11,
-5600000,2.0425e-11,
-5700000,1.9633e-11,
-5800000,1.8564e-11,
-5900000,1.7818e-11,
-6000000,1.7545e-11,
-5950000,1.7101e-11,
-5850000,1.7946e-11,
-5750000,1.8932e-11,
-5650000,2.0052e-11,
-5550000,2.0191e-11,
-5450000,2.066e-11,
-5350000,1.9256e-11,
-5250000,1.8636e-11,
-5150000,1.8978e-11,
-5050000,1.9474e-11,
-4950000,1.9614e-11,
-4850000,2.0642e-11,
-4750000,2.063e-11,
-4650000,2.0856e-11,
-4550000,2.1649e-11,
-4450000,2.167e-11,
-4350000,2.2737e-11,
-4250000,2.3073e-11,
-4150000,2.3721e-11,
-4050000,2.3193e-11,
-3950000,2.4232e-11,
-3850000,2.4669e-11,
-3750000,2.6512e-11,
-3650000,2.6813e-11,
-3550000,2.7665e-11,
-3450000,2.9173e-11,
-3350000,3.0399e-11,
-3250000,3.1208e-11,
-3150000,3.1999e-11,
-3050000,3.244e-11,
-2950000,3.3622e-11,
-2850000,3.4929e-11,
-2750000,3.6302e-11,
-2650000,3.7946e-11,
-2550000,4.0293e-11,
-2450000,4.1954e-11,
-2350000,4.1787e-11,
-2250000,4.0402e-11,
-2150000,4.0063e-11,
-2050000,3.9592e-11,
-1950000,4.0693e-11,
-1850000,4.309e-11,
-1750000,4.8204e-11,
-1650000,5.2953e-11,
-1550000,5.5912e-11,
-1450000,5.5497e-11,
-1350000,5.2e-11,
-1250000,4.8337e-11,
-1150000,4.8211e-11,
-1050000,4.9245e-11,
-950000,5.3809e-11,
-850000,6.0276e-11,
-750000,6.9776e-11,
-650000,7.1449e-11,
-550000,6.4602e-11,
-450000,5.2914e-11,
-350000,4.476e-11,
-250000,4.1056e-11,
-150000,3.9169e-11,
-50000,3.7691e-11,
