General parameters:
Start time: 2023             11             15             11              9       1.412035
Finish time: 2023             11             15             11             33      57.986656
Dwell time (ms): 3750.000000
Source chamber pressure: Error-S
Differential chamber pressure: 8.01e-07
Sample chamber pressure: 1.64e-08
Example position (nm): -4225000.000000,379000.000000,-750000.000000
Rotation angle (udeg): 139999995.000000
==========
Instrument status: 
0:Data Directory:/icon/data/2023_11_defect2_MoS2_5um_hbn_sub/
1:Sample:MoS2
2:Comments:no
3:PinholePlate:#C13
4:z_Zero:4200
5:Operator:djw77/nav31/kw570
==========
zscan inputs: 
z_sep:50000
z_range:0 -6000000
data_path:/icon/data/2023_11_defect2_MoS2_5um_hbn_sub/
example_pos:-4225000   379000  -750000
N_dwell:250
sampling_period:15
make_plots:1
m1:0.98976
m2:-0.0073571
example_pos_norm_1:-4242000   399000  -750000
example_pos_norm_2:-4255000   376000  -750000
==========
Detector params:
Sampling period (ms): 15.000000
N dwell: 250.000000
Filament current (A): 1.540000
Filament emission (mA): 2.351592
Solenoid current (A): NaN
Solenoid shim current (A): NaN
Lens params:
0  685
1  300
2  125
3      -0.002
4       -0.01
5       0.012
6         0.8
7         2.1
8         2.8
9  3000
10  1400
11         0.85
12   0
==========
Data:
z(nm),I(A)
0,4.0436e-11,
-100000,3.9722e-11,
-200000,4.0378e-11,
-300000,4.3512e-11,
-400000,5.0038e-11,
-500000,5.9841e-11,
-600000,6.6158e-11,
-700000,6.3328e-11,
-800000,5.4128e-11,
-900000,4.7893e-11,
-1000000,4.5088e-11,
-1100000,4.4044e-11,
-1200000,4.3936e-11,
-1300000,4.5722e-11,
-1400000,4.7629e-11,
-1500000,4.915e-11,
-1600000,4.7742e-11,
-1700000,4.5083e-11,
-1800000,4.2528e-11,
-1900000,4.0795e-11,
-2000000,3.9815e-11,
-2100000,4.0393e-11,
-2200000,4.1408e-11,
-2300000,4.2778e-11,
-2400000,4.3258e-11,
-2500000,4.3177e-11,
-2600000,4.1582e-11,
-2700000,3.8933e-11,
-2800000,3.6944e-11,
-2900000,3.4459e-11,
-3000000,3.3018e-11,
-3100000,3.2233e-11,
-3200000,3.0842e-11,
-3300000,3.0518e-11,
-3400000,3.0151e-11,
-3500000,2.9929e-11,
-3600000,2.8913e-11,
-3700000,2.7821e-11,
-3800000,2.6584e-11,
-3900000,2.6261e-11,
-4000000,2.5418e-11,
-4100000,2.5236e-11,
-4200000,2.3936e-11,
-4300000,2.383e-11,
-4400000,2.3061e-11,
-4500000,2.2456e-11,
-4600000,2.2456e-11,
-4700000,2.178e-11,
-4800000,2.1349e-11,
-4900000,2.106e-11,
-5000000,2.0986e-11,
-5100000,2.0066e-11,
-5200000,1.9956e-11,
-5300000,1.9324e-11,
-5400000,1.9292e-11,
-5500000,2.038e-11,
-5600000,1.9806e-11,
-5700000,1.9334e-11,
-5800000,1.8737e-11,
-5900000,1.7974e-11,
-6000000,1.7649e-11,
-5950000,1.8342e-11,
-5850000,1.8499e-11,
-5750000,1.8507e-11,
-5650000,1.9268e-11,
-5550000,1.9831e-11,
-5450000,2.0126e-11,
-5350000,2e-11,
-5250000,1.9993e-11,
-5150000,2.01e-11,
-5050000,2.0442e-11,
-4950000,2.1238e-11,
-4850000,2.1328e-11,
-4750000,2.1348e-11,
-4650000,2.2317e-11,
-4550000,2.2167e-11,
-4450000,2.2884e-11,
-4350000,2.3532e-11,
-4250000,2.428e-11,
-4150000,2.4594e-11,
-4050000,2.5442e-11,
-3950000,2.5959e-11,
-3850000,2.5949e-11,
-3750000,2.696e-11,
-3650000,2.821e-11,
-3550000,2.8421e-11,
-3450000,3.0121e-11,
-3350000,3.0246e-11,
-3250000,3.0938e-11,
-3150000,3.0904e-11,
-3050000,3.2445e-11,
-2950000,3.3346e-11,
-2850000,3.5328e-11,
-2750000,3.7692e-11,
-2650000,4.0564e-11,
-2550000,4.2684e-11,
-2450000,4.3012e-11,
-2350000,4.3004e-11,
-2250000,4.2287e-11,
-2150000,4.0547e-11,
-2050000,4.0019e-11,
-1950000,4.0094e-11,
-1850000,4.0837e-11,
-1750000,4.366e-11,
-1650000,4.5912e-11,
-1550000,4.8737e-11,
-1450000,4.8814e-11,
-1350000,4.677e-11,
-1250000,4.4758e-11,
-1150000,4.431e-11,
-1050000,4.4518e-11,
-950000,4.5899e-11,
-850000,5.017e-11,
-750000,5.8471e-11,
-650000,6.6533e-11,
-550000,6.4322e-11,
-450000,5.4862e-11,
-350000,4.6793e-11,
-250000,4.1619e-11,
-150000,3.9836e-11,
-50000,3.9833e-11,
