General parameters:
Start time: 2023             11             10             13              9      39.715216
Finish time: 2023             11             10             13             34      35.128761
Dwell time (ms): 3750.000000
Source chamber pressure: Error-S
Differential chamber pressure: 7.96e-07
Sample chamber pressure: 1.82e-08
Example position (nm): -4640000.000000,-937000.000000,-750000.000000
Rotation angle (udeg): 79999825.000000
==========
Instrument status: 
0:Data Directory:/icon/data/2023_11_defect2_MoS2_5um_hbn_sub/
1:Sample:MoS2
2:Comments:no
3:PinholePlate:#C13
4:z_Zero:4200
5:Operator:djw77/nav31/kw570
==========
zscan inputs: 
z_sep:50000
z_range:0 -6000000
data_path:/icon/data/2023_11_defect2_MoS2_5um_hbn_sub/
example_pos:-4640000  -937000  -750000
N_dwell:250
sampling_period:15
make_plots:1
m1:0.98976
m2:-0.0073571
example_pos_norm_1:-4664000  -942000  -750000
example_pos_norm_2:-4662000  -960000  -750000
==========
Detector params:
Sampling period (ms): 15.000000
N dwell: 250.000000
Filament current (A): 1.540000
Filament emission (mA): 2.220606
Solenoid current (A): NaN
Solenoid shim current (A): NaN
Lens params:
0  685
1  300
2  125
3      -0.002
4       -0.01
5       0.012
6         0.8
7         2.1
8         2.8
9  3000
10  1400
11         0.85
12   0
==========
Data:
z(nm),I(A)
0,2.9014e-11,
-100000,2.8653e-11,
-200000,2.8509e-11,
-300000,2.9575e-11,
-400000,3.2028e-11,
-500000,3.846e-11,
-600000,4.6923e-11,
-700000,5.3803e-11,
-800000,5.2864e-11,
-900000,4.7816e-11,
-1000000,3.9755e-11,
-1100000,3.5386e-11,
-1200000,3.2414e-11,
-1300000,3.1797e-11,
-1400000,3.2718e-11,
-1500000,3.4806e-11,
-1600000,3.6278e-11,
-1700000,3.5492e-11,
-1800000,3.3757e-11,
-1900000,3.0892e-11,
-2000000,2.7872e-11,
-2100000,2.6809e-11,
-2200000,2.798e-11,
-2300000,2.9552e-11,
-2400000,3.1411e-11,
-2500000,3.35e-11,
-2600000,3.3608e-11,
-2700000,3.2876e-11,
-2800000,2.999e-11,
-2900000,2.8018e-11,
-3000000,2.539e-11,
-3100000,2.3837e-11,
-3200000,2.2819e-11,
-3300000,2.2004e-11,
-3400000,2.1107e-11,
-3500000,2.1949e-11,
-3600000,2.1501e-11,
-3700000,2.0738e-11,
-3800000,1.9886e-11,
-3900000,1.9038e-11,
-4000000,1.7021e-11,
-4100000,1.7158e-11,
-4200000,1.7726e-11,
-4300000,1.5474e-11,
-4400000,1.5729e-11,
-4500000,1.5279e-11,
-4600000,1.5168e-11,
-4700000,1.4431e-11,
-4800000,1.4107e-11,
-4900000,1.405e-11,
-5000000,1.3967e-11,
-5100000,1.3544e-11,
-5200000,1.3671e-11,
-5300000,1.3268e-11,
-5400000,1.3483e-11,
-5500000,1.428e-11,
-5600000,1.3604e-11,
-5700000,1.2575e-11,
-5800000,1.2686e-11,
-5900000,1.2227e-11,
-6000000,1.2119e-11,
-5950000,1.2244e-11,
-5850000,1.2508e-11,
-5750000,1.2553e-11,
-5650000,1.328e-11,
-5550000,1.373e-11,
-5450000,1.331e-11,
-5350000,1.3691e-11,
-5250000,1.3508e-11,
-5150000,1.3652e-11,
-5050000,1.3395e-11,
-4950000,1.3712e-11,
-4850000,1.4421e-11,
-4750000,1.4396e-11,
-4650000,1.4758e-11,
-4550000,1.4553e-11,
-4450000,1.5339e-11,
-4350000,1.5686e-11,
-4250000,1.6126e-11,
-4150000,1.7686e-11,
-4050000,1.7177e-11,
-3950000,1.8513e-11,
-3850000,1.9654e-11,
-3750000,2.0859e-11,
-3650000,2.1364e-11,
-3550000,2.1425e-11,
-3450000,2.1674e-11,
-3350000,2.2049e-11,
-3250000,2.2384e-11,
-3150000,2.3552e-11,
-3050000,2.4551e-11,
-2950000,2.7342e-11,
-2850000,3.007e-11,
-2750000,3.2598e-11,
-2650000,3.3863e-11,
-2550000,3.4604e-11,
-2450000,3.2382e-11,
-2350000,3.0223e-11,
-2250000,2.7772e-11,
-2150000,2.756e-11,
-2050000,2.7884e-11,
-1950000,2.94e-11,
-1850000,3.2137e-11,
-1750000,3.5002e-11,
-1650000,3.64e-11,
-1550000,3.5592e-11,
-1450000,3.3294e-11,
-1350000,3.1873e-11,
-1250000,3.1642e-11,
-1150000,3.3325e-11,
-1050000,3.7356e-11,
-950000,4.4017e-11,
-850000,5.1723e-11,
-750000,5.3661e-11,
-650000,5.103e-11,
-550000,4.2581e-11,
-450000,3.5312e-11,
-350000,3.0722e-11,
-250000,2.9288e-11,
-150000,2.8808e-11,
-50000,2.9013e-11,
